comment daily death counts in affected countries
comment preceding _smooth mobility from Apple by 21d
comment Julian day 61/68:Sundays
array data
  typeOfArray float
 dimension 343 41
head
	"Days_from_60"
	"Belgium_fatal"
	"France_fatal"
	"Germany_fatal"
	"Iran_fatal"
	"Ireland_fatal"
	"Italy_fatal"
	"Netherlands_fatal"
	"Portugal_fatal"
	"Spain_fatal"
	"Sweden_fatal"
	"Switzerland_fatal"
	"United Kingdom_fatal"
	"Georgia_fatal"
	"Indiana_fatal"
	"Louisiana_fatal"
	"Massachusetts_fatal"
	"Michigan_fatal"
	"New Jersey_fatal"
	"New York_fatal"
	"Washington_fatal"
	"Belgium_mobil"
	"France_mobil"
	"Germany_mobil"
	"Iran_mobil"
	"Ireland_mobil"
	"Italy_mobil"
	"Netherlands_mobil"
	"Portugal_mobil"
	"Spain_mobil"
	"Sweden_mobil"
	"Switzerland_mobil"
	"United Kingdom_mobil"
	"Georgia_mobil"
	"Indiana_mobil"
	"Louisiana_mobil"
	"Massachusetts_mobil"
	"Michigan_mobil"
	"New Jersey_mobil"
	"New York_mobil"
	"Washington_mobil"
data
	0	0.000	0.007	0.000	0.59	0.000	0.288	0.000	0.000	0.007	0.000	0.004	0.000	0.000	0.000	0.000	0.000	0.000	0.000	0.000	0.238	96.044	95.328	92.171	-1.000	94.732	96.250	98.266	93.041	91.685	99.290	98.201	96.647	94.426	96.082	88.306	96.333	96.443	96.221	96.566	99.132
	1	0.000	0.010	0.000	0.818	0.000	0.394	0.002	0.000	0.011	0.000	0.012	0.001	0.000	0.000	0.000	0.000	0.000	0.000	0.000	0.291	96.793	95.471	92.616	-1.000	95.085	97.501	98.393	93.245	91.909	99.229	98.042	96.763	95.229	96.210	89.771	96.868	97.105	96.749	97.187	99.014
	2	0.000	0.018	0.000	0.943	0.000	0.513	0.006	0.000	0.020	0.000	0.021	0.003	0.000	0.000	0.000	0.000	0.000	0.000	0.000	0.333	97.782	95.936	93.675	-1.000	95.343	99.039	99.431	93.720	92.435	99.284	98.126	96.878	97.152	96.641	91.470	97.856	97.547	97.685	98.145	98.844
	3	0.000	0.028	0.000	1.488	0.000	0.685	0.015	0.000	0.036	0.000	0.025	0.005	0.000	0.000	0.000	0.000	0.000	0.000	0.000	0.386	98.565	96.784	94.726	-1.000	96.154	101.128	99.752	95.658	93.544	99.232	98.369	97.291	100.448	98.369	93.642	99.433	99.272	99.493	100.229	99.813
	4	0.000	0.040	0.001	2.233	0.000	0.930	0.023	0.000	0.062	0.000	0.033	0.007	0.000	0.000	0.000	0.000	0.000	0.000	0.000	0.407	99.360	97.507	95.597	-1.000	96.344	102.955	100.322	97.390	94.579	99.514	99.157	96.968	103.991	99.540	94.609	99.612	100.254	99.786	100.320	99.767
	5	0.000	0.051	0.002	3.137	0.000	1.278	0.033	0.000	0.094	0.003	0.045	0.011	0.000	0.000	0.000	0.000	0.000	0.006	0.000	0.402	100.296	98.315	96.709	-1.000	98.306	104.670	101.749	98.377	96.036	99.794	99.435	97.947	104.092	100.612	94.434	100.708	101.196	100.660	101.285	100.290
	6	0.008	0.069	0.004	4.032	0.008	1.659	0.040	0.000	0.134	0.009	0.058	0.017	0.000	0.000	0.000	0.000	0.000	0.017	0.001	0.380	100.709	99.522	100.042	-1.000	100.036	105.682	102.040	99.085	97.668	100.030	100.414	99.370	104.624	101.501	95.562	101.506	101.582	102.055	102.363	101.361
	7	0.023	0.089	0.005	5.015	0.025	2.140	0.048	0.000	0.171	0.017	0.070	0.023	0.004	0.000	0.000	0.000	0.003	0.029	0.004	0.423	101.706	100.729	102.196	-1.000	102.082	106.506	102.697	99.878	99.860	100.321	101.155	100.773	104.754	101.809	96.433	102.203	101.558	102.541	102.700	102.108
	8	0.038	0.114	0.007	6.026	0.042	2.662	0.060	0.000	0.256	0.026	0.099	0.026	0.011	0.000	0.000	0.000	0.010	0.029	0.007	0.486	102.718	101.340	103.877	-1.000	103.876	107.490	103.510	100.540	101.774	100.826	101.550	102.324	104.514	102.481	97.216	102.952	101.397	102.844	103.277	102.565
	9	0.041	0.141	0.010	7.006	0.050	3.187	0.081	0.000	0.415	0.043	0.157	0.040	0.018	0.000	0.008	0.000	0.017	0.029	0.012	0.586	103.358	101.957	105.012	-1.000	105.559	108.151	103.488	101.075	103.469	101.227	101.798	103.562	103.077	103.499	97.026	103.302	101.484	102.689	103.236	102.666
	10	0.046	0.171	0.015	7.977	0.067	3.761	0.119	0.000	0.684	0.066	0.231	0.071	0.018	0.000	0.032	0.000	0.017	0.035	0.030	0.613	103.361	102.319	106.228	-1.000	106.632	107.837	103.026	100.540	104.683	101.236	102.021	104.606	100.837	103.533	99.133	102.501	101.145	101.940	102.314	101.801
	11	0.054	0.197	0.019	8.914	0.083	4.388	0.161	0.000	0.935	0.092	0.248	0.125	0.018	0.006	0.072	0.000	0.017	0.046	0.070	0.629	101.800	103.037	107.211	-1.000	107.050	107.232	102.157	100.969	106.111	101.076	102.322	105.493	100.667	103.876	103.036	102.672	102.319	102.668	102.643	101.901
	12	0.072	0.239	0.026	9.843	0.083	5.110	0.240	0.003	1.272	0.123	0.297	0.177	0.018	0.023	0.112	0.000	0.017	0.064	0.134	0.708	101.232	103.543	107.365	-1.000	106.369	105.375	100.964	103.232	106.883	101.177	101.843	105.218	100.570	103.411	107.484	101.828	102.386	102.538	101.808	100.958
	13	0.105	0.273	0.035	10.874	0.075	5.823	0.361	0.012	1.670	0.178	0.396	0.241	0.025	0.046	0.160	0.000	0.021	0.092	0.236	0.872	101.451	103.289	105.343	-1.000	104.790	103.206	100.191	106.021	107.358	100.870	101.263	103.869	99.462	102.499	109.509	101.327	102.139	101.389	100.774	99.582
	14	0.154	0.296	0.047	11.838	0.067	6.544	0.532	0.028	2.216	0.270	0.549	0.328	0.062	0.057	0.240	0.000	0.024	0.173	0.380	1.014	101.015	103.023	104.401	-1.000	102.908	99.676	99.020	106.144	106.705	100.483	100.677	102.491	99.778	102.311	112.089	100.898	102.266	100.752	100.222	98.826
	15	0.236	0.455	0.068	12.719	0.067	7.429	0.717	0.049	2.741	0.376	0.681	0.446	0.135	0.063	0.368	0.006	0.028	0.295	0.599	1.141	100.489	103.189	103.507	-1.000	101.039	95.009	98.097	106.215	106.317	99.945	100.408	100.913	100.257	101.309	113.013	100.180	101.498	100.407	99.536	98.421
	16	0.428	0.759	0.097	13.373	0.075	8.588	0.955	0.093	3.466	0.488	0.916	0.565	0.229	0.080	0.536	0.017	0.038	0.433	0.894	1.220	100.111	103.090	103.209	-1.000	99.697	90.021	97.463	105.849	106.683	99.658	100.189	99.694	101.981	100.896	113.914	100.293	101.289	100.054	98.826	98.558
	17	0.679	1.074	0.124	13.731	0.067	10.013	1.249	0.155	4.314	0.605	1.213	0.667	0.320	0.114	0.672	0.050	0.087	0.572	1.246	1.368	99.425	103.009	102.222	-1.000	98.174	84.601	97.302	104.826	106.806	99.080	98.921	98.882	103.161	100.869	110.718	100.624	101.113	99.865	98.929	98.859
	18	0.899	1.335	0.148	13.776	0.083	11.302	1.574	0.232	5.557	0.766	1.643	0.778	0.400	0.149	0.848	0.117	0.171	0.774	1.640	1.506	98.491	102.311	101.392	-1.000	97.422	79.043	96.795	102.468	106.239	98.462	96.821	98.384	105.217	101.224	106.358	100.853	100.608	99.639	98.953	99.871
	19	1.076	1.677	0.180	13.649	0.141	12.222	1.937	0.328	6.992	0.978	1.960	0.957	0.462	0.194	1.136	0.216	0.300	1.075	2.178	1.569	97.851	101.090	101.533	-1.000	98.052	74.371	96.566	98.804	106.149	97.711	95.915	98.220	106.237	101.816	102.414	100.988	100.290	99.267	98.954	100.215
	20	1.419	2.136	0.231	13.404	0.208	13.168	2.381	0.467	8.769	1.254	2.175	1.289	0.535	0.251	1.656	0.305	0.498	1.514	2.915	1.638	96.413	99.769	100.815	-1.000	98.758	71.541	96.125	94.575	105.486	97.377	94.617	97.708	106.989	102.330	100.226	100.917	100.376	99.647	99.215	99.691
	21	1.924	2.710	0.297	13.201	0.333	14.107	2.961	0.628	10.765	1.549	2.435	1.737	0.633	0.337	2.200	0.427	0.791	2.057	3.869	1.749	95.230	98.747	99.974	-1.000	99.911	70.165	95.837	93.355	105.179	96.841	93.511	97.554	106.488	102.966	97.794	101.579	100.236	99.882	99.509	98.738
	22	2.506	3.227	0.379	13.095	0.541	14.908	3.653	0.822	13.111	1.896	3.000	2.266	0.727	0.434	2.952	0.633	1.185	2.686	5.105	1.902	94.592	97.669	99.334	-1.000	100.193	69.111	95.478	92.275	105.006	96.217	92.615	97.370	105.509	104.433	96.050	101.161	101.181	100.202	99.954	97.677
	23	3.044	3.666	0.473	13.062	0.857	15.692	4.376	1.057	15.133	2.261	3.479	2.906	0.818	0.577	3.784	0.894	1.638	3.536	6.691	2.092	94.371	96.775	98.373	-1.000	100.006	67.719	95.090	91.636	104.237	95.607	91.677	97.142	104.352	105.663	95.990	100.688	101.608	100.845	100.626	95.503
	24	3.669	4.032	0.593	13.033	1.215	16.245	5.166	1.301	17.089	2.668	3.855	3.635	0.920	0.709	4.600	1.094	2.095	4.506	8.573	2.309	94.778	95.634	97.638	-1.000	99.868	65.707	95.004	91.070	103.706	95.514	91.183	96.647	105.073	105.601	97.137	99.349	101.502	100.716	100.071	92.698
	25	4.379	4.506	0.738	13.001	1.648	16.629	5.923	1.555	18.800	3.095	4.214	4.339	0.982	0.766	5.168	1.216	2.555	5.477	10.738	2.568	96.520	94.841	97.131	-1.000	100.533	63.201	95.701	92.054	103.960	95.235	90.598	96.547	104.532	105.870	98.548	98.009	101.904	100.693	99.993	89.905
	26	5.496	5.017	0.894	12.914	2.031	17.084	6.774	1.765	20.207	3.534	4.923	5.098	1.138	0.829	6.040	1.432	3.280	6.598	13.003	2.657	97.024	94.291	96.580	-1.000	100.749	60.895	95.713	92.276	103.303	94.825	90.713	96.005	104.503	105.528	100.102	97.807	102.790	100.786	99.927	88.262
	27	6.831	5.962	1.053	12.902	2.497	17.495	7.600	1.954	21.223	3.979	5.922	6.098	1.385	1.034	7.152	1.982	4.291	8.452	15.527	3.101	96.931	93.585	95.927	-1.000	100.298	57.407	94.829	92.029	102.112	94.436	90.240	95.489	105.213	105.250	101.178	98.065	103.323	100.803	100.044	87.229
	28	8.345	7.287	1.233	12.843	2.988	17.698	8.475	2.136	21.918	4.518	6.756	7.325	1.713	1.354	8.232	2.770	5.375	11.405	18.537	4.026	96.182	92.751	95.120	-1.000	98.645	51.750	93.729	91.294	100.161	93.734	89.506	94.755	105.404	104.725	102.081	96.543	104.497	100.146	99.189	85.928
	29	9.572	8.873	1.422	12.569	3.396	17.717	9.142	2.337	22.475	5.118	7.098	8.814	1.993	1.720	8.968	3.492	6.320	15.079	21.892	4.998	94.958	92.120	93.959	-1.000	96.776	45.770	92.167	89.834	96.959	92.416	88.203	93.608	106.128	103.809	103.505	95.237	103.934	99.031	97.544	83.873
	30	10.812	10.230	1.603	12.349	3.787	17.455	9.807	2.485	22.890	5.729	7.478	10.271	2.189	2.063	9.824	4.130	7.114	19.429	25.200	5.357	90.851	89.962	91.353	-1.000	92.641	39.221	88.371	86.432	90.593	89.645	85.554	91.479	105.683	101.750	103.430	91.740	102.205	96.186	94.298	81.479
	31	11.745	11.811	1.737	12.433	4.245	16.857	10.218	2.621	22.766	6.328	8.002	11.664	2.309	2.394	10.976	4.668	7.843	23.410	28.477	5.664	84.422	86.246	86.837	-1.000	86.710	32.490	82.543	80.495	80.356	85.909	81.410	88.633	102.031	99.459	100.559	86.757	98.907	92.615	89.814	78.224
	32	12.839	12.918	1.861	12.696	4.544	16.196	10.460	2.643	22.265	6.959	8.419	12.858	2.429	2.674	12.184	5.074	8.805	27.356	32.028	5.923	75.965	80.986	81.296	-1.000	79.726	25.771	76.235	71.305	67.284	81.410	76.653	85.420	97.932	93.974	96.614	81.389	94.074	87.597	83.479	73.950
	33	14.348	13.962	1.996	12.890	5.019	15.540	10.546	2.717	21.714	7.602	8.378	14.032	2.778	3.029	13.192	5.779	9.833	30.834	36.360	6.313	69.239	75.509	76.196	-1.000	72.631	20.294	69.722	63.284	55.628	77.299	71.738	82.107	94.864	91.177	92.886	76.385	90.626	83.153	78.224	71.268
	34	16.167	14.890	2.196	12.870	5.560	14.911	10.852	2.798	21.188	8.210	8.233	15.385	3.429	3.440	13.752	6.955	10.726	35.646	40.748	6.166	62.344	69.327	71.171	-1.000	65.128	16.446	62.526	56.251	45.274	73.545	66.809	78.307	90.934	88.359	88.698	70.310	86.061	77.745	72.202	67.920
	35	17.925	15.435	2.406	12.686	6.184	14.292	11.115	2.955	20.620	8.686	8.262	17.011	3.993	3.949	14.688	8.354	11.485	41.014	44.222	5.405	55.286	60.270	65.558	-1.000	57.719	14.575	55.424	48.921	35.515	69.754	60.964	73.059	86.833	84.476	82.870	63.586	79.798	72.104	65.887	63.825
	36	19.790	15.392	2.586	12.497	6.633	13.749	11.025	3.014	19.721	8.930	8.456	18.284	4.036	4.617	15.416	9.587	12.580	45.329	46.199	4.475	46.762	49.940	59.922	-1.000	50.539	13.295	48.378	41.833	26.378	66.447	54.959	67.503	81.978	79.905	76.752	57.717	74.299	66.399	59.630	60.096
	37	22.647	15.759	2.571	12.279	7.050	13.276	10.746	3.036	18.755	9.211	8.320	19.404	4.087	5.394	15.608	11.002	14.047	48.282	47.718	4.190	40.094	40.829	54.725	-1.000	45.390	12.923	42.872	35.471	19.468	64.577	50.093	62.930	77.556	75.663	70.464	52.275	69.486	61.241	54.054	56.845
	38	25.701	15.257	2.497	11.921	7.291	12.894	10.431	3.076	18.016	9.455	8.060	20.036	4.153	5.943	15.416	12.651	15.431	51.563	48.572	3.931	34.685	32.000	49.633	-1.000	40.486	12.714	38.425	29.541	14.288	62.854	45.588	57.757	72.949	70.980	64.042	47.780	65.041	56.031	48.420	53.962
	39	27.423	14.779	2.462	11.472	7.566	12.654	10.179	3.246	17.419	9.515	7.820	20.318	4.131	6.097	15.136	14.288	15.926	53.949	48.962	3.709	31.101	23.856	44.231	-1.000	36.253	12.626	34.603	24.795	11.686	61.656	41.170	51.696	68.225	67.060	56.917	43.673	61.080	50.680	43.153	51.657
	40	28.107	14.255	2.490	11.043	7.740	12.447	9.795	3.363	16.740	9.527	7.763	20.571	4.044	6.057	15.208	15.021	16.306	56.150	48.378	3.492	28.301	19.304	40.204	-1.000	33.938	12.340	32.399	21.836	10.516	60.586	37.470	47.355	64.700	63.532	52.195	40.850	57.900	46.502	39.509	49.435
	41	28.148	13.795	2.439	10.632	8.181	12.380	9.353	3.435	15.819	9.639	7.412	20.637	3.833	6.143	16.456	15.648	16.888	58.097	46.950	3.350	25.669	15.716	37.145	-1.000	31.939	12.125	31.069	19.549	9.960	59.931	35.120	43.499	61.384	60.740	48.244	38.119	54.933	42.830	35.848	47.042
	42	28.128	13.728	2.486	10.219	8.598	12.369	9.130	3.407	15.022	9.759	7.127	20.361	3.564	6.434	17.744	16.270	17.338	61.113	44.991	3.239	23.787	14.823	34.848	-1.000	30.564	11.934	30.217	17.988	9.652	59.753	33.880	39.589	58.680	58.557	45.547	36.426	51.377	40.822	33.621	45.115
	43	28.727	13.913	2.652	9.839	9.214	12.311	9.503	3.401	14.845	9.808	6.929	19.940	3.745	6.583	18.144	17.797	17.380	64.129	43.081	3.228	23.108	14.648	33.159	-1.000	29.486	11.790	29.837	16.779	9.399	59.972	32.948	36.043	56.881	56.933	43.526	34.328	49.161	38.623	31.453	43.003
	44	28.345	13.147	2.782	9.381	9.846	12.124	9.782	3.404	14.484	9.639	6.801	19.741	4.102	6.417	18.280	17.874	17.167	66.665	40.509	3.249	23.067	14.551	32.278	-1.000	28.261	11.533	29.706	16.425	9.322	60.064	32.378	32.466	55.327	55.226	41.801	33.512	46.732	37.610	30.075	40.541
	45	27.121	12.856	2.899	8.842	10.520	11.960	9.922	3.363	13.680	9.487	6.607	19.666	4.400	6.246	18.352	20.417	17.125	67.844	37.715	3.254	23.326	14.523	32.074	-1.000	27.921	11.298	29.700	16.530	9.208	60.288	32.493	29.088	53.958	53.116	40.407	32.585	44.289	36.386	28.917	37.867
	46	26.403	12.682	2.899	8.345	11.452	11.721	9.878	3.258	12.536	9.346	6.310	19.615	4.749	6.257	18.224	23.303	16.651	68.537	35.511	3.281	23.541	14.688	32.732	-1.000	26.380	11.219	29.577	16.611	9.164	60.202	33.434	26.437	53.030	52.083	39.786	31.846	42.003	35.134	27.787	35.754
	47	25.255	12.385	2.886	8.040	12.651	11.540	9.843	3.138	12.116	9.065	6.025	19.231	5.095	6.514	17.536	26.317	16.003	69.005	33.950	3.360	23.234	14.833	32.840	-1.000	23.683	11.257	29.523	16.552	9.181	60.401	33.686	24.228	53.152	51.751	39.541	30.952	40.639	34.927	27.346	34.650
	48	23.967	11.728	2.916	7.863	13.458	11.226	9.837	3.017	11.923	8.609	6.025	19.203	5.316	6.743	16.336	27.933	15.515	67.832	32.873	3.334	23.220	14.861	33.199	-1.000	22.216	11.279	29.739	16.475	9.047	60.631	33.760	22.324	53.678	51.403	39.196	30.630	39.268	35.439	27.571	33.507
	49	22.955	10.561	2.797	7.785	13.367	10.925	9.682	2.946	11.663	8.268	5.844	19.124	5.207	6.771	15.736	31.274	15.954	66.053	31.437	3.270	23.178	14.938	33.884	-1.000	20.902	11.374	30.096	16.474	8.943	60.905	34.322	21.879	53.477	51.058	39.086	30.691	39.463	35.093	27.361	32.894
	50	21.589	9.316	2.605	7.762	12.901	10.575	9.161	2.940	10.835	8.127	5.522	18.698	5.196	6.497	16.584	33.101	16.717	64.510	30.565	3.154	23.225	15.058	34.428	-1.000	19.648	11.445	30.280	16.398	8.866	61.007	34.871	21.630	53.204	50.977	38.978	30.847	39.128	35.300	27.462	32.723
	51	19.888	8.612	2.561	7.758	12.206	10.262	8.740	2.996	10.349	8.055	5.328	18.191	4.800	6.497	17.760	35.815	16.400	62.136	30.365	3.027	23.147	15.214	34.880	-1.000	18.493	11.648	30.466	16.655	8.793	60.707	35.446	21.503	52.848	51.618	38.681	30.379	39.585	34.930	27.186	32.913
	52	18.886	7.935	2.477	7.705	11.616	9.875	8.479	2.996	10.282	7.875	4.965	17.905	4.345	6.691	17.656	35.898	15.672	59.386	30.065	2.964	23.141	15.345	35.008	-1.000	16.432	11.792	30.525	16.759	8.694	60.363	35.886	21.480	51.723	52.890	38.311	29.509	39.964	34.342	26.703	33.266
	53	18.266	7.490	2.420	7.578	10.719	9.498	8.267	2.958	10.558	7.794	4.672	17.296	4.167	7.149	17.264	35.166	16.128	55.781	28.715	2.879	23.387	15.404	35.165	-1.000	15.913	11.892	30.687	16.753	8.685	59.945	36.104	21.541	50.232	53.322	37.788	29.273	40.369	34.711	27.031	33.677
	54	17.712	7.178	2.318	7.405	9.332	9.034	7.852	2.937	10.170	7.866	4.651	16.735	4.131	7.440	16.688	34.261	16.906	52.979	26.570	2.721	24.237	15.600	36.532	-1.000	15.829	12.004	31.352	16.694	8.662	59.916	37.387	21.653	49.377	53.956	37.646	29.743	40.837	34.901	27.261	33.768
	55	17.072	6.872	2.209	7.289	8.180	8.620	7.278	2.924	9.884	7.998	4.626	16.049	4.251	7.794	15.904	34.422	16.885	53.712	24.191	2.568	24.734	15.825	37.580	-1.000	15.867	12.148	31.869	16.947	8.765	61.246	38.272	21.710	48.598	54.587	37.799	30.133	41.203	35.012	27.508	34.191
	56	16.009	6.506	2.106	7.066	8.063	8.174	6.738	2.835	9.584	7.961	4.308	15.599	4.484	8.777	14.736	33.484	16.167	55.336	22.668	2.467	25.425	16.020	38.370	-1.000	16.062	12.416	32.335	17.247	8.924	62.516	38.928	21.764	48.542	55.540	37.936	30.359	41.250	35.311	27.708	34.500
	57	14.630	6.098	1.917	6.808	8.027	7.712	6.576	2.680	9.070	7.852	3.941	15.244	4.647	10.549	13.328	33.362	14.759	56.682	21.423	2.399	26.232	16.208	39.284	-1.000	16.334	12.730	33.018	17.866	9.126	63.892	39.825	21.901	48.238	56.777	38.196	30.329	41.861	35.446	27.636	34.830
	58	13.077	5.639	1.753	6.518	8.092	7.335	6.301	2.433	8.385	7.789	3.586	14.644	4.771	12.154	12.144	32.418	14.490	59.010	19.921	2.309	27.172	16.403	39.919	-1.000	16.548	13.038	33.757	17.591	9.048	65.657	40.397	22.112	48.209	57.044	38.925	30.391	41.392	35.360	27.481	35.414
	59	11.514	5.261	1.658	6.266	7.778	7.166	6.140	2.263	8.004	7.820	3.335	13.890	4.902	12.497	11.800	31.402	14.386	59.623	18.842	2.203	28.062	16.649	40.416	-1.000	16.527	13.438	34.483	16.788	8.892	66.064	40.534	21.871	48.626	57.066	38.979	31.021	40.882	35.509	27.570	36.049
	60	10.026	4.933	1.589	6.078	7.317	7.045	6.009	2.167	7.961	7.855	3.091	13.429	4.825	12.411	11.696	30.692	14.023	59.819	17.925	2.066	28.827	16.823	40.828	-1.000	16.597	13.720	34.884	16.489	9.026	65.320	41.073	21.869	49.580	57.642	39.496	31.418	41.240	35.724	27.769	36.541
	61	9.273	4.688	1.475	5.869	6.989	6.673	6.030	2.090	7.429	7.829	2.633	13.075	4.731	12.177	12.224	30.214	12.636	59.524	17.162	1.997	28.865	16.667	40.209	-1.000	16.267	13.502	34.358	16.422	9.142	64.821	40.769	21.624	48.913	56.531	38.934	31.031	40.249	35.191	27.462	36.471
	62	9.331	4.457	1.372	5.698	6.542	6.345	5.890	1.972	6.839	7.714	2.142	12.632	4.560	12.017	12.784	29.459	11.642	57.444	16.833	2.055	28.517	16.392	39.771	-1.000	15.911	13.238	34.079	16.211	9.305	64.695	41.124	21.273	49.413	56.167	39.435	30.396	39.792	34.397	26.981	36.693
	63	9.908	4.226	1.317	5.624	6.020	6.213	5.594	1.855	6.302	7.611	1.828	12.061	4.367	11.291	12.600	28.521	10.482	54.926	16.832	2.171	28.526	16.727	39.891	-1.000	15.884	13.246	34.048	16.593	9.525	64.403	41.498	21.490	50.258	55.986	39.773	30.648	39.748	34.566	27.234	36.975
	64	10.597	3.988	1.382	5.563	5.853	6.241	5.083	1.765	6.074	7.507	1.622	11.610	4.105	9.703	12.056	27.733	9.994	51.274	16.708	2.298	28.640	17.097	40.156	-1.000	15.803	13.358	34.159	16.577	9.732	63.939	41.943	21.769	50.993	55.813	40.054	31.301	39.324	34.842	27.631	37.392
	65	10.490	3.851	1.345	5.453	5.546	6.019	4.906	1.697	6.051	7.378	1.453	11.043	4.124	8.029	11.152	27.455	9.596	46.652	16.074	2.377	28.801	17.480	40.938	-1.000	15.905	13.428	34.250	17.086	10.202	63.267	42.687	21.949	51.478	56.369	40.498	31.864	39.725	35.440	28.183	37.863
	66	10.454	3.733	1.310	5.328	5.366	5.629	4.558	1.583	5.808	7.292	1.424	10.481	4.131	7.589	10.688	27.394	9.345	44.128	15.588	2.409	28.742	17.841	41.938	-1.000	16.174	13.476	34.279	18.379	10.770	64.175	43.960	22.460	52.468	56.085	41.403	32.304	39.716	36.001	28.637	38.301
	67	10.349	3.541	1.248	5.182	5.199	5.257	4.195	1.456	5.169	7.140	1.399	9.993	3.978	7.554	10.720	27.511	9.004	43.631	14.879	2.414	28.163	18.099	42.741	-1.000	16.379	13.584	34.394	19.382	10.897	66.262	44.801	22.719	53.490	57.421	41.871	31.782	40.418	36.187	28.695	38.682
	68	10.082	3.449	1.227	5.012	5.045	5.185	3.874	1.345	5.068	6.896	1.387	9.770	3.778	7.589	10.144	27.283	8.704	43.174	14.056	2.420	28.545	18.631	44.348	-1.000	17.051	14.167	35.576	20.233	11.048	67.818	46.177	23.333	54.491	59.367	42.807	33.138	41.940	37.494	29.679	39.768
	69	9.121	3.334	1.200	4.719	4.784	4.976	3.732	1.317	4.946	6.604	1.366	9.396	3.578	7.417	9.328	26.584	8.505	41.106	12.945	2.362	29.424	19.488	45.655	-1.000	17.940	14.743	36.512	20.778	11.262	67.970	46.806	24.109	55.366	61.263	43.400	34.031	43.311	38.761	30.604	40.452
	70	7.651	3.250	1.110	4.505	4.310	4.670	3.549	1.326	4.844	6.271	1.387	8.935	3.520	6.971	8.808	25.413	8.537	37.767	11.669	2.288	29.757	19.826	46.267	-1.000	18.241	14.939	37.024	20.756	11.331	68.387	47.188	24.311	55.708	62.596	44.343	33.794	43.954	38.755	30.486	40.650
	71	6.206	3.165	0.895	4.353	3.602	4.436	3.344	1.255	4.689	6.007	1.275	8.405	3.447	6.811	8.536	25.202	8.122	36.051	10.408	2.129	30.063	20.155	46.894	-1.000	18.531	15.084	37.538	20.964	11.518	68.965	47.674	24.463	55.883	63.972	44.695	33.793	44.218	39.191	30.742	40.394
	72	5.832	3.202	0.755	4.289	3.147	4.394	2.961	1.196	4.499	5.821	1.168	8.069	3.458	6.874	8.576	25.007	7.567	35.739	10.014	2.008	30.261	20.466	47.336	-1.000	18.614	15.224	38.111	21.406	11.796	69.554	48.104	24.653	55.155	64.195	44.723	34.329	44.497	39.487	30.967	40.273
	73	5.432	3.281	0.684	4.183	2.920	4.328	2.719	1.203	4.138	5.577	1.056	7.857	3.527	7.046	8.568	24.025	6.773	35.196	9.671	1.907	30.347	20.646	47.590	-1.000	18.709	15.384	38.606	21.694	12.036	69.879	48.356	24.967	55.654	66.489	45.592	34.085	45.807	39.422	31.142	40.399
	74	5.158	3.625	0.671	4.166	2.833	4.202	2.531	1.258	3.823	5.379	0.970	7.814	3.647	6.931	8.712	22.870	6.037	33.942	9.800	1.823	31.106	20.827	47.983	-1.000	18.827	15.363	39.062	21.845	12.395	70.450	48.512	25.309	56.118	66.214	46.702	35.667	46.117	40.547	32.272	40.719
	75	4.830	3.725	0.638	4.299	2.693	4.070	2.421	1.311	3.559	5.253	0.834	7.501	3.618	6.754	9.232	21.877	5.926	32.925	10.433	1.722	31.568	21.076	48.464	-1.000	18.730	15.686	39.112	21.999	12.825	70.738	48.872	25.577	57.437	66.695	47.751	34.883	46.923	40.125	31.914	40.883
	76	4.476	3.282	0.582	4.497	2.539	3.936	2.235	1.329	3.374	5.178	0.627	7.231	3.433	6.783	9.640	21.388	5.978	32.076	10.974	1.617	31.816	21.312	48.757	-1.000	18.528	15.994	38.963	22.527	13.153	70.969	49.715	25.708	57.589	66.997	48.134	34.617	47.435	40.243	31.944	40.824
	77	4.076	2.851	0.553	4.602	2.479	3.814	2.016	1.351	2.973	5.241	0.487	6.887	3.433	7.137	9.072	20.883	6.069	30.412	10.411	1.506	31.772	22.295	48.910	-1.000	18.559	16.257	39.089	22.949	13.571	70.999	50.191	25.709	58.202	67.638	48.014	35.257	48.909	41.379	32.927	41.291
	78	3.672	2.645	0.540	4.636	2.512	3.568	1.849	1.425	3.028	5.296	0.499	6.601	3.782	7.280	8.784	19.262	6.041	28.228	9.517	1.458	31.686	23.019	48.885	-1.000	18.504	16.546	39.190	23.272	13.953	71.036	50.501	25.725	58.399	67.290	48.338	35.864	49.844	41.694	33.214	42.037
	79	3.341	2.431	0.571	4.669	2.492	3.274	1.670	1.493	3.573	5.298	0.528	6.306	4.087	7.183	8.424	17.780	5.975	25.836	8.742	1.400	31.684	23.489	48.750	-1.000	18.568	16.787	39.270	23.977	14.492	71.654	50.588	25.767	60.101	68.029	49.524	35.731	50.988	41.843	33.457	42.618
	80	3.069	2.236	0.573	4.799	2.372	3.031	1.489	1.527	4.385	5.233	0.524	6.188	4.018	6.691	8.144	16.903	5.954	24.664	8.158	1.326	31.522	23.458	48.498	-1.000	19.425	16.595	39.484	23.219	14.766	71.202	50.391	25.939	61.052	68.988	50.368	36.349	52.877	43.024	34.228	43.457
	81	2.952	1.750	0.561	4.849	2.225	2.865	1.464	1.524	4.304	5.037	0.532	6.314	3.931	6.371	7.248	16.109	5.950	23.520	7.560	1.305	31.527	24.032	48.732	-1.000	19.972	17.088	39.718	23.152	15.607	71.239	50.251	26.217	62.345	71.780	51.202	36.717	54.833	44.123	34.884	43.749
	82	2.936	1.320	0.544	4.694	2.058	2.684	1.453	1.512	4.412	4.817	0.528	6.422	3.829	6.103	6.216	15.504	5.584	21.636	6.242	1.257	32.039	24.657	49.242	-1.000	20.388	17.723	40.300	23.687	16.438	72.083	50.904	26.373	63.638	72.935	51.934	38.483	56.530	46.046	36.451	44.026
	83	2.895	1.361	0.520	4.478	1.978	2.542	1.411	1.487	4.593	4.621	0.524	5.963	3.913	5.509	4.904	14.760	5.061	19.614	4.946	1.263	32.795	25.401	49.938	-1.000	20.653	19.242	40.914	24.942	17.285	72.453	51.572	26.666	64.570	74.082	52.801	39.711	57.759	47.298	37.286	44.763
	84	2.772	1.380	0.498	4.396	1.964	2.328	1.368	1.447	4.983	4.409	0.491	5.660	4.044	4.840	4.672	14.011	4.580	18.089	4.735	1.300	33.896	25.525	50.942	-1.000	21.353	20.821	41.483	26.245	18.135	72.832	52.298	27.165	65.462	74.108	54.094	40.541	58.430	48.026	37.826	45.760
	85	2.690	1.217	0.485	4.329	1.971	2.138	1.345	1.434	4.486	4.188	0.446	5.856	3.807	4.634	4.424	13.522	4.528	17.401	4.953	1.326	35.125	26.084	52.063	-1.000	22.168	22.311	42.096	27.628	18.912	73.195	53.160	27.697	66.956	75.700	55.330	40.950	60.383	48.569	38.365	46.335
	86	2.706	1.096	0.477	4.292	1.838	1.971	1.422	1.441	3.599	4.002	0.363	5.882	3.404	4.623	4.320	13.478	4.315	16.887	4.733	1.247	36.375	26.971	53.463	-1.000	22.833	23.894	42.722	28.537	19.380	73.322	54.547	28.240	68.079	77.699	55.951	41.963	62.349	50.004	39.362	47.415
	87	2.703	0.992	0.474	4.276	1.697	1.923	1.459	1.453	2.699	3.904	0.305	5.576	3.447	4.674	4.272	13.223	4.375	16.783	4.467	1.168	38.101	27.869	55.522	-1.000	22.761	25.975	43.544	31.164	20.169	75.082	56.496	28.127	68.281	77.993	55.709	42.812	62.658	50.270	39.576	48.652
	88	2.511	0.965	0.457	4.382	1.577	1.924	1.418	1.453	2.788	3.924	0.260	5.079	3.862	4.554	4.368	13.850	4.521	17.043	4.093	1.067	39.711	28.628	57.009	-1.000	23.062	27.529	44.542	32.966	20.029	76.247	58.316	28.361	69.086	78.284	56.064	42.659	63.307	50.222	39.298	50.877
	89	2.288	0.923	0.421	4.618	1.530	1.901	1.341	1.453	2.678	3.927	0.194	4.729	4.182	4.726	4.424	15.532	4.800	17.326	4.069	1.046	40.339	30.068	57.472	-1.000	23.264	28.463	44.860	34.115	19.832	76.011	58.896	28.553	69.065	77.922	55.963	42.245	62.560	50.308	39.074	52.040
	90	2.173	0.875	0.369	4.878	1.417	1.803	1.234	1.444	2.356	3.919	0.116	4.749	3.978	5.034	5.064	17.025	4.793	17.269	4.053	1.025	40.607	30.709	57.725	-1.000	23.085	28.285	44.883	33.959	19.267	76.741	58.865	28.134	67.921	75.390	54.530	41.804	61.320	49.894	38.696	52.116
	91	2.096	0.911	0.315	4.948	1.183	1.728	1.086	1.410	1.929	3.867	0.083	4.552	3.520	5.160	5.616	16.625	4.472	16.934	3.980	0.999	41.981	33.870	58.443	-1.000	23.042	28.371	45.530	34.047	19.619	77.213	60.107	28.826	68.889	77.082	55.288	42.407	63.337	50.646	39.224	52.580
	92	1.978	0.963	0.293	5.007	0.942	1.691	0.959	1.348	1.934	3.861	0.058	4.062	3.342	4.731	5.784	15.815	4.165	16.466	3.821	1.004	43.044	36.836	58.998	-1.000	22.968	28.451	45.786	34.038	19.947	77.428	60.927	29.419	69.770	77.981	55.990	43.187	64.694	51.910	40.066	53.346
	93	1.842	0.924	0.275	5.073	0.915	1.687	0.796	1.280	1.935	3.769	0.041	3.766	3.273	4.509	5.704	14.860	4.155	15.905	3.862	1.078	44.147	39.737	59.548	-1.000	23.114	28.621	46.027	34.140	20.167	77.645	61.190	30.082	70.685	78.239	56.048	44.074	64.547	52.751	40.597	53.708
	94	1.676	0.885	0.260	5.215	0.942	1.622	0.678	1.203	1.892	3.649	0.037	3.728	3.087	4.566	5.704	14.133	3.995	14.859	3.582	1.115	45.138	43.671	60.222	-1.000	23.313	28.696	46.247	34.473	20.334	77.426	61.526	31.464	72.657	79.487	57.559	44.810	66.247	54.998	41.981	54.228
	95	1.614	0.855	0.252	5.294	0.996	1.548	0.600	1.097	1.778	3.557	0.037	3.682	2.604	4.829	5.688	12.767	3.486	14.409	3.441	1.215	45.798	47.211	61.084	-1.000	23.461	28.821	46.477	36.091	20.737	77.137	62.372	32.585	74.173	80.852	58.299	46.287	68.220	57.034	43.562	53.607
	96	1.563	0.852	0.261	5.290	1.049	1.542	0.596	0.977	1.597	3.563	0.091	3.591	2.418	4.720	5.584	10.541	3.193	14.796	3.287	1.316	47.057	49.702	62.642	-1.000	24.167	29.533	47.345	37.937	21.240	77.557	63.999	33.834	75.824	82.003	59.273	47.218	69.229	58.132	44.476	53.942
	97	1.473	0.827	0.273	5.292	1.123	1.579	0.628	0.878	1.417	3.594	0.202	3.418	2.909	4.446	5.024	8.793	2.855	15.183	2.995	1.337	49.261	53.368	64.416	-1.000	25.647	31.077	48.652	39.383	22.787	77.729	66.161	35.641	78.192	85.914	62.367	48.643	71.612	59.814	45.883	55.276
	98	1.358	0.743	0.275	5.408	1.183	1.587	0.650	0.807	1.232	3.600	0.305	3.202	3.651	4.166	4.352	8.554	2.565	15.091	2.757	1.289	50.355	55.078	65.841	-1.000	26.808	32.240	49.394	40.633	23.458	78.294	67.406	36.459	79.030	86.748	63.796	49.189	72.620	60.361	46.441	55.979
	99	1.204	0.662	0.246	5.548	1.236	1.525	0.596	0.736	1.042	3.508	0.326	2.940	4.029	4.183	3.904	8.265	2.269	14.178	2.634	1.257	51.407	57.078	67.766	-1.000	28.373	33.672	50.762	42.137	24.128	80.438	69.661	37.619	79.436	87.929	64.898	50.126	74.742	61.140	47.301	56.587
	100	1.040	0.626	0.227	5.658	1.169	1.448	0.521	0.668	0.853	3.457	0.343	2.690	4.396	3.971	3.640	8.188	1.921	13.929	2.646	1.268	51.673	58.576	69.562	-1.000	29.543	35.301	52.017	43.843	25.032	82.656	72.930	38.506	80.379	89.567	67.029	51.119	78.078	62.264	48.412	57.150
	101	0.922	0.601	0.213	5.750	1.009	1.414	0.488	0.600	0.705	3.414	0.351	2.467	4.716	3.640	3.232	8.260	1.551	14.264	2.886	1.220	52.502	60.003	70.611	-1.000	30.171	37.135	53.153	45.677	26.157	84.461	74.804	39.312	81.734	92.509	69.232	52.907	80.138	62.574	49.327	57.900
	102	0.807	0.577	0.205	5.957	0.875	1.385	0.486	0.578	0.630	3.325	0.347	2.376	4.967	3.411	3.104	8.238	1.562	14.848	2.668	1.083	53.205	61.058	71.011	-1.000	31.103	39.452	53.737	47.544	27.103	84.687	74.869	39.868	82.667	93.621	70.764	52.814	81.248	61.786	48.871	59.310
	103	0.702	0.561	0.190	6.361	0.788	1.297	0.477	0.544	0.629	3.236	0.355	2.272	4.938	3.314	3.112	8.110	1.440	14.565	2.445	0.919	53.564	62.375	71.422	-1.000	32.123	41.469	53.905	49.318	27.982	85.756	75.636	40.353	83.505	96.724	71.785	53.571	84.107	62.963	49.840	60.484
	104	0.625	0.564	0.173	6.783	0.648	1.174	0.434	0.482	0.629	3.147	0.380	2.121	4.749	3.257	3.296	7.672	1.401	14.420	2.333	0.893	54.186	63.832	72.100	-1.000	32.811	42.306	54.801	50.295	29.267	86.769	76.347	41.194	83.273	96.504	70.733	53.647	85.173	63.256	49.973	59.936
	105	0.582	0.593	0.165	7.123	0.515	1.091	0.367	0.408	0.629	3.064	0.409	1.953	4.400	3.240	3.464	7.505	1.429	13.773	2.261	0.951	54.780	64.798	72.758	-1.000	33.243	43.259	55.700	51.131	30.595	87.922	77.160	42.069	83.249	98.248	70.318	54.642	86.363	64.433	50.788	60.535
	106	0.602	0.591	0.179	7.402	0.408	1.066	0.334	0.352	0.648	3.006	0.396	1.844	4.255	3.326	3.408	7.649	1.384	12.924	2.006	0.962	55.597	65.730	73.181	-1.000	33.474	44.069	56.035	52.145	32.035	87.462	77.298	42.660	83.503	99.504	71.149	55.634	86.449	65.416	51.531	61.707
	107	0.610	0.575	0.182	7.704	0.334	1.053	0.325	0.309	0.674	2.960	0.380	1.751	3.967	3.343	3.408	7.394	1.325	11.711	1.771	0.930	57.028	67.162	73.811	-1.000	34.511	44.565	56.533	52.827	33.467	86.899	76.729	43.603	83.800	100.281	71.277	55.972	86.195	65.427	51.593	62.814
	108	0.592	0.553	0.178	8.077	0.314	0.993	0.315	0.275	0.671	2.874	0.371	1.649	3.702	3.451	3.736	7.005	1.311	10.093	1.578	0.967	58.169	68.777	76.024	-1.000	35.874	44.976	57.573	53.749	35.158	87.541	77.820	44.666	84.029	100.109	70.984	55.992	86.459	65.954	51.610	63.621
	109	0.535	0.540	0.170	8.289	0.327	0.929	0.315	0.223	0.594	2.774	0.367	1.599	3.375	3.440	3.848	6.656	1.307	8.475	1.764	1.014	59.093	70.953	78.320	-1.000	36.905	45.591	58.740	54.438	37.054	89.665	80.867	45.995	84.233	101.430	71.841	57.420	87.422	68.269	53.140	62.975
	110	0.518	0.504	0.164	8.337	0.341	0.891	0.286	0.223	0.508	2.668	0.297	1.569	3.120	3.417	3.776	6.367	1.328	7.892	1.817	1.088	59.457	71.968	79.670	-1.000	37.424	46.342	59.667	54.271	38.178	90.786	82.379	47.308	84.267	100.748	72.432	59.040	87.066	68.846	53.203	62.475
	111	0.556	0.437	0.158	8.385	0.401	0.840	0.256	0.260	0.423	2.573	0.165	1.502	2.775	3.354	3.776	6.151	1.345	7.418	1.863	1.125	59.982	73.161	82.882	-1.000	38.402	47.981	60.657	54.829	38.765	92.350	84.534	48.108	85.785	102.305	74.067	60.378	88.880	70.013	54.263	64.234
	112	0.607	0.363	0.143	8.534	0.448	0.746	0.246	0.312	0.340	2.433	0.041	1.461	2.611	3.114	3.728	5.834	1.318	6.927	1.909	1.099	60.962	75.258	85.051	-1.000	39.590	50.485	61.432	55.238	39.461	93.445	85.246	48.717	86.350	102.802	74.985	60.960	89.472	69.839	54.104	64.505
	113	0.553	0.345	0.127	8.733	0.494	0.641	0.234	0.365	0.244	2.263	0.058	1.468	2.400	2.714	3.920	5.590	1.279	6.667	1.928	1.057	61.954	76.541	86.389	-1.000	39.512	51.803	62.027	55.432	40.170	94.547	85.559	48.646	87.349	102.936	74.834	60.938	89.888	69.486	53.650	64.878
	114	0.497	0.337	0.126	8.876	0.515	0.554	0.217	0.430	0.147	2.083	0.091	1.480	2.480	2.446	4.016	5.690	1.199	6.430	1.875	1.083	62.642	77.541	86.906	-1.000	38.990	52.888	62.173	55.796	40.757	95.676	85.464	48.335	87.862	103.744	75.201	61.819	91.729	70.677	54.425	65.037
	115	0.461	0.330	0.132	8.900	0.601	0.480	0.190	0.482	0.079	1.994	0.124	1.432	2.440	2.269	3.824	5.851	1.161	6.719	1.736	1.152	62.956	78.468	86.693	-1.000	38.946	54.740	61.675	56.157	41.624	96.269	84.659	47.961	87.724	105.189	75.922	62.394	93.594	71.279	54.865	65.198
	116	0.461	0.315	0.130	9.115	0.641	0.415	0.165	0.519	0.076	1.968	0.124	1.397	2.451	2.223	3.536	5.834	1.150	6.840	1.567	1.173	63.625	79.520	87.086	-1.000	38.600	56.716	61.452	56.645	42.510	95.967	83.418	47.426	88.569	106.457	75.772	62.573	95.212	72.587	55.325	66.665
	117	0.456	0.307	0.132	9.429	0.615	0.394	0.171	0.532	0.087	1.908	0.128	1.380	2.371	2.120	3.512	5.834	1.206	6.656	1.440	1.141	65.056	80.385	87.540	-1.000	38.843	57.652	61.722	57.396	43.156	97.011	82.215	46.876	89.433	108.107	73.655	62.006	97.213	74.132	56.218	67.570
	118	0.441	0.294	0.131	9.695	0.535	0.393	0.183	0.544	0.107	1.824	0.136	1.344	2.258	2.034	3.392	5.751	1.325	6.251	1.249	1.115	65.744	81.363	86.052	-1.000	39.423	57.763	61.418	58.554	43.917	97.372	81.068	46.504	89.988	109.615	72.563	63.151	99.141	75.498	57.279	67.930
	119	0.428	0.273	0.124	9.829	0.448	0.423	0.188	0.563	0.131	1.733	0.144	1.268	2.116	2.069	3.496	5.484	1.447	6.211	1.055	1.136	66.184	81.585	85.562	-1.000	39.348	57.387	61.248	61.305	44.703	98.317	81.353	46.267	90.850	109.336	72.829	63.818	100.573	77.956	58.945	68.285
	120	0.430	0.273	0.109	9.977	0.374	0.435	0.186	0.590	0.150	1.661	0.128	1.190	2.011	2.183	3.536	5.357	1.419	6.540	1.097	1.220	66.738	82.662	85.916	-1.000	40.296	58.089	61.544	65.203	45.706	99.783	82.174	46.391	91.374	110.131	73.149	64.980	101.245	80.174	60.581	68.953
	121	0.454	0.262	0.096	10.231	0.327	0.419	0.190	0.637	0.163	1.606	0.095	1.076	1.684	2.257	3.568	5.251	1.342	6.996	1.220	1.263	67.897	83.793	87.348	-1.000	41.334	59.135	62.699	67.060	46.749	100.925	83.945	46.629	92.286	111.167	73.655	65.053	102.606	80.254	60.952	69.845
	122	0.474	0.256	0.088	10.511	0.267	0.407	0.204	0.692	0.171	1.532	0.062	1.023	1.520	2.217	3.528	4.785	1.230	7.037	1.373	1.257	69.056	85.057	89.351	-1.000	42.146	60.239	64.435	68.263	47.618	102.562	86.003	47.066	93.816	111.773	74.545	66.689	104.054	82.803	62.942	70.956
	123	0.507	0.253	0.092	10.640	0.214	0.406	0.223	0.742	0.163	1.423	0.062	0.992	1.527	2.080	3.608	4.530	1.088	6.881	1.365	1.310	70.436	86.337	89.727	-1.000	43.733	60.679	65.839	68.741	48.669	104.777	86.717	48.146	95.360	112.180	76.155	68.173	105.094	83.797	64.118	71.486
	124	0.484	0.239	0.087	10.776	0.200	0.394	0.219	0.794	0.156	1.348	0.062	0.965	1.622	2.131	3.760	4.302	1.046	6.887	1.387	1.400	71.118	87.875	90.891	-1.000	45.218	62.506	66.784	70.848	50.004	106.720	87.774	49.005	95.660	112.786	79.156	69.154	105.850	84.104	64.695	72.460
	125	0.410	0.222	0.082	10.965	0.187	0.401	0.208	0.810	0.145	1.268	0.054	0.928	1.713	2.194	3.928	4.263	1.046	7.048	1.413	1.485	72.658	89.345	91.478	-1.000	46.012	63.652	67.709	70.785	50.966	108.380	88.605	49.769	96.079	113.105	81.417	69.718	106.698	84.810	65.236	72.848
	126	0.295	0.216	0.085	11.330	0.194	0.391	0.202	0.825	0.130	1.251	0.037	0.873	1.669	2.257	3.984	4.319	1.056	7.747	1.481	1.569	73.847	90.919	92.021	-1.000	46.676	64.439	68.423	69.237	51.843	109.136	89.640	50.282	96.318	114.486	81.829	70.645	107.661	84.926	65.752	74.028
	127	0.241	0.230	0.092	11.605	0.227	0.359	0.198	0.822	0.113	1.274	0.021	0.800	1.673	2.200	4.032	4.124	1.101	8.695	1.434	1.654	75.184	92.395	92.329	-1.000	47.459	65.299	68.889	66.392	52.675	110.042	90.651	50.966	96.856	115.737	82.685	71.612	109.938	85.342	66.480	74.906
	128	0.197	0.236	0.093	11.886	0.287	0.324	0.175	0.801	0.091	1.285	0.029	0.759	1.880	2.040	4.232	3.908	1.230	9.521	1.322	1.717	76.253	94.042	92.091	-1.000	48.132	66.566	69.077	65.539	53.666	111.961	90.789	51.620	97.273	116.691	83.216	73.371	111.035	86.795	67.801	76.304
	129	0.167	0.242	0.091	12.018	0.287	0.304	0.144	0.742	0.069	1.256	0.045	0.715	2.316	1.937	4.656	3.952	1.485	9.336	1.177	1.706	77.905	96.015	91.554	-1.000	49.146	67.964	69.384	65.776	54.807	109.196	91.665	52.404	98.336	118.047	83.698	74.445	112.843	87.412	68.851	77.870
	130	0.133	0.239	0.089	12.340	0.301	0.292	0.117	0.717	0.069	1.234	0.062	0.683	2.589	1.920	5.064	3.841	1.680	9.423	1.114	1.685	79.126	97.560	92.240	-1.000	49.874	70.380	69.878	66.708	56.036	106.256	94.050	53.156	98.678	119.738	84.070	75.401	114.485	87.681	69.504	79.017
	131	0.131	0.229	0.087	12.544	0.294	0.293	0.100	0.665	0.068	1.185	0.058	0.663	2.680	1.829	5.088	3.747	1.628	9.192	1.052	1.680	80.651	99.595	92.691	-1.000	49.834	72.995	70.530	66.541	57.743	106.439	95.981	53.248	98.426	119.045	83.418	75.561	113.968	87.466	69.514	79.362
	132	0.138	0.241	0.081	12.675	0.294	0.282	0.075	0.640	0.066	1.113	0.050	0.630	2.818	1.697	5.024	3.569	1.457	9.047	1.035	1.685	81.938	100.996	93.408	-1.000	49.720	74.399	71.439	67.387	59.731	107.194	97.137	54.063	98.913	119.228	82.501	76.433	114.456	88.999	70.492	81.407
	133	0.172	0.287	0.067	12.682	0.281	0.268	0.048	0.628	0.063	1.027	0.045	0.573	2.993	1.589	5.008	3.419	1.265	8.221	0.980	1.611	83.930	102.627	94.609	-1.000	50.291	76.120	72.922	68.328	61.935	109.089	98.521	55.338	99.201	119.626	82.442	77.371	114.679	90.251	71.472	82.744
	134	0.197	0.338	0.054	12.805	0.267	0.275	0.038	0.606	0.062	0.952	0.054	0.521	3.109	1.560	5.064	3.220	1.255	7.181	0.915	1.437	85.623	104.646	95.795	-1.000	51.486	77.894	74.978	69.066	63.541	111.128	99.906	57.338	99.352	119.796	81.518	77.740	115.543	91.719	72.470	83.481
	135	0.231	0.330	0.046	12.829	0.234	0.288	0.035	0.532	0.062	0.921	0.054	0.497	3.116	1.634	4.992	3.025	1.203	5.881	0.838	1.300	87.300	106.379	97.404	-1.000	53.463	79.348	76.723	69.769	65.632	112.417	101.296	59.417	99.656	120.334	81.149	78.503	116.497	93.469	73.518	84.230
	136	0.236	0.320	0.040	12.972	0.247	0.292	0.035	0.498	0.065	0.907	0.037	0.478	3.095	1.714	4.776	2.975	1.025	5.425	0.808	1.289	88.400	107.840	99.134	-1.000	54.399	81.305	77.839	70.169	67.757	118.122	102.514	60.567	99.390	120.673	80.798	79.039	116.529	94.861	74.279	84.634
	137	0.243	0.321	0.037	13.008	0.234	0.293	0.031	0.454	0.064	0.869	0.029	0.464	3.051	1.800	4.936	2.959	0.899	4.997	0.808	1.342	89.214	109.161	100.311	-1.000	54.644	82.812	78.251	70.186	69.224	123.405	103.405	60.681	99.142	120.157	80.446	78.771	117.280	95.693	74.341	84.868
	138	0.256	0.322	0.036	13.164	0.234	0.284	0.031	0.448	0.062	0.826	0.050	0.439	3.069	1.834	5.768	2.931	0.920	4.778	0.787	1.405	90.390	109.869	100.664	-1.000	55.364	83.674	79.104	70.683	70.865	124.414	103.477	61.514	100.404	122.094	81.430	79.050	120.115	97.390	75.539	85.570
	139	0.261	0.287	0.037	13.395	0.227	0.279	0.035	0.439	0.057	0.820	0.074	0.390	3.440	1.977	6.728	2.920	0.955	4.177	0.790	1.453	91.403	111.053	101.200	-1.000	56.511	84.926	79.541	71.227	71.975	125.068	104.029	61.642	100.767	122.453	82.548	78.702	121.031	98.102	76.234	85.355
	140	0.238	0.208	0.038	13.654	0.267	0.265	0.042	0.420	0.053	0.803	0.091	0.335	4.160	2.189	7.592	2.909	0.959	3.530	0.859	1.522	92.347	112.161	101.460	-1.000	57.552	85.618	79.584	71.973	72.990	124.886	104.555	61.513	101.184	122.857	83.049	78.292	122.184	98.094	76.472	85.117
	141	0.233	0.125	0.043	13.827	0.341	0.244	0.044	0.414	0.049	0.740	0.116	0.299	4.767	2.326	8.208	2.798	0.889	2.929	0.903	1.643	93.439	113.251	101.823	-1.000	58.150	86.424	79.342	73.363	74.722	124.762	104.287	60.834	101.814	123.904	84.335	78.885	123.074	98.180	76.842	85.313
	142	0.228	0.115	0.050	13.998	0.408	0.218	0.038	0.445	0.047	0.637	0.149	0.281	5.305	2.326	8.160	2.726	0.767	2.998	0.854	1.775	94.596	114.518	101.975	-1.000	58.341	87.278	79.489	74.882	75.869	124.318	104.383	60.014	102.849	124.760	84.991	80.506	124.311	99.867	78.360	85.610
	143	0.249	0.111	0.057	14.109	0.368	0.201	0.077	0.470	0.046	0.531	0.165	0.283	5.804	2.246	8.352	2.620	0.683	3.160	0.799	1.934	95.899	115.707	102.463	-1.000	59.622	87.817	80.319	76.933	77.054	123.135	104.602	60.068	102.834	123.989	83.749	79.451	123.941	99.752	77.429	85.047
	144	0.259	0.108	0.057	14.102	0.368	0.187	0.161	0.458	0.046	0.470	0.161	0.283	5.927	2.246	8.512	2.670	0.600	3.206	0.784	2.034	96.817	117.060	103.434	-1.000	61.534	88.337	81.531	80.112	78.430	122.022	105.220	60.861	100.236	121.344	81.063	78.032	120.638	98.743	76.940	83.163
	145	0.266	0.108	0.056	14.067	0.368	0.177	0.248	0.424	0.046	0.430	0.149	0.279	5.895	2.297	8.528	2.792	0.596	3.339	0.779	2.076	97.589	118.724	104.533	-1.000	63.378	89.104	82.236	83.538	79.892	121.757	106.993	61.672	99.730	121.246	80.154	78.659	120.831	99.347	76.990	83.459
	146	0.302	0.117	0.056	13.974	0.361	0.160	0.263	0.399	0.048	0.361	0.136	0.287	5.778	2.211	8.328	2.887	0.613	3.420	0.723	2.108	98.258	120.139	105.208	-1.000	64.636	90.071	83.371	85.813	81.327	122.791	107.606	62.836	99.430	122.561	79.657	79.885	120.906	99.059	76.826	83.564
	147	0.359	0.138	0.058	13.866	0.287	0.147	0.275	0.365	0.052	0.290	0.128	0.295	5.607	2.057	8.552	2.898	0.676	3.339	0.625	2.235	98.168	121.299	105.596	-1.000	65.385	91.083	84.461	87.951	82.625	124.379	108.071	63.766	99.061	122.761	79.044	80.983	120.854	99.987	77.039	83.531
	148	0.348	0.152	0.057	13.714	0.154	0.137	0.271	0.349	0.054	0.255	0.116	0.298	5.611	2.006	9.104	2.925	0.746	3.056	0.523	2.372	97.855	122.189	105.781	-1.000	66.166	92.235	85.371	89.782	83.789	125.477	109.197	64.502	98.710	122.434	78.826	81.096	120.416	100.347	77.091	83.517
	149	0.328	0.159	0.053	13.652	0.027	0.133	0.271	0.343	0.051	0.258	0.091	0.275	5.705	2.114	9.440	2.942	0.882	2.629	0.525	2.457	97.277	123.310	106.146	-1.000	67.012	93.443	85.957	91.493	85.177	127.396	110.140	65.433	97.638	122.212	78.856	80.164	119.098	99.691	76.640	82.899
	150	0.307	0.161	0.051	13.597	0.013	0.140	0.234	0.337	0.050	0.261	0.083	0.258	5.898	2.206	9.440	3.125	0.945	2.311	0.494	2.488	97.958	126.264	106.177	-1.000	68.448	94.982	86.521	93.908	87.025	129.283	110.293	66.949	97.743	123.473	80.288	81.126	118.895	97.560	76.212	83.618
	151	0.318	0.167	0.052	13.599	0.000	0.148	0.158	0.318	0.069	0.244	0.078	0.252	6.105	2.114	9.552	3.120	1.011	2.213	0.467	2.478	98.526	128.019	106.673	-1.000	70.294	96.049	87.477	95.614	88.244	131.760	110.605	68.267	100.356	127.666	83.479	83.936	122.625	99.108	77.331	86.261
	152	0.315	0.174	0.053	13.486	0.000	0.157	0.077	0.300	0.125	0.227	0.070	0.245	6.211	2.080	9.624	3.042	1.004	2.016	0.417	2.457	99.136	128.639	107.560	-1.000	71.921	97.105	88.518	96.175	89.325	134.454	111.273	69.402	99.987	127.826	84.106	85.206	122.159	100.220	78.713	86.202
	153	0.300	0.174	0.058	13.341	0.000	0.161	0.067	0.269	0.197	0.229	0.070	0.230	6.269	2.097	9.336	2.859	0.976	1.820	0.411	2.547	99.154	128.699	108.355	-1.000	72.874	98.060	89.443	97.662	90.493	136.975	112.223	69.951	100.131	127.063	84.405	85.121	122.036	100.724	79.241	86.513
	154	0.269	0.153	0.066	13.074	0.033	0.160	0.058	0.247	0.226	0.258	0.087	0.215	6.382	2.063	9.000	2.670	0.959	1.681	0.460	2.615	99.177	128.379	109.110	-1.000	74.148	99.175	90.281	99.160	91.613	138.857	112.669	70.644	100.322	127.051	84.759	84.790	121.989	101.276	80.006	87.341
	155	0.290	0.137	0.074	12.727	0.127	0.165	0.065	0.226	0.219	0.284	0.103	0.209	6.396	1.954	9.008	2.664	1.088	1.577	0.512	2.626	99.048	128.884	109.791	-1.000	75.577	100.052	91.110	100.787	92.705	140.874	112.642	71.636	100.601	126.943	84.571	85.487	121.727	102.137	80.750	88.034
	156	0.300	0.127	0.076	12.199	0.247	0.166	0.073	0.207	0.219	0.287	0.103	0.214	6.549	1.800	9.728	2.870	1.189	1.467	0.476	2.557	98.978	129.184	110.538	-1.000	76.617	100.874	91.789	102.621	93.623	142.496	112.650	72.673	100.835	126.106	83.726	85.699	121.248	102.157	80.573	88.446
	157	0.325	0.128	0.084	11.629	0.301	0.165	0.083	0.204	0.221	0.290	0.103	0.195	6.585	1.783	10.304	2.703	1.217	1.450	0.461	2.515	98.301	128.138	111.840	-1.000	77.132	101.557	92.731	103.669	93.985	144.407	113.373	73.774	100.840	126.169	83.526	86.211	122.661	104.818	82.376	88.213
	158	0.341	0.121	0.084	11.080	0.301	0.162	0.088	0.257	0.256	0.295	0.107	0.194	6.644	1.863	10.328	2.648	1.157	1.508	0.443	2.467	97.982	128.334	113.301	-1.000	77.269	102.806	93.803	105.298	94.383	145.875	114.065	74.567	100.942	126.487	83.012	87.034	122.910	106.670	84.164	88.973
	159	0.372	0.112	0.084	10.732	0.307	0.145	0.081	0.309	0.310	0.295	0.128	0.209	6.989	1.903	10.400	2.631	1.147	1.433	0.438	2.446	96.969	128.893	114.075	-1.000	78.458	103.623	94.146	106.511	94.607	146.766	114.142	75.042	101.571	125.714	82.775	87.049	121.828	106.585	84.006	90.082
	160	0.423	0.114	0.078	10.498	0.327	0.137	0.113	0.340	0.347	0.318	0.153	0.225	7.658	2.017	10.480	2.687	1.143	1.375	0.428	2.314	95.942	130.222	114.623	-1.000	79.608	104.691	94.557	108.227	95.006	146.989	114.331	76.205	101.676	125.365	82.721	87.346	122.120	106.814	84.276	90.486
	161	0.520	0.139	0.068	10.364	0.321	0.138	0.188	0.368	0.333	0.321	0.157	0.226	8.422	2.263	10.400	2.814	1.115	1.392	0.355	2.145	94.598	131.532	115.243	-1.000	80.805	105.684	94.984	109.394	95.157	147.497	114.301	77.214	101.694	124.702	82.592	88.067	121.925	106.706	84.341	90.619
	162	0.641	0.161	0.062	10.354	0.241	0.138	0.277	0.396	0.376	0.301	0.128	0.231	8.815	2.469	10.040	2.881	1.000	1.462	0.298	2.082	94.132	131.719	116.030	-1.000	80.943	106.671	94.981	110.865	95.226	148.049	114.833	78.176	101.760	123.765	82.583	87.875	121.869	106.145	83.858	90.299
	163	0.746	0.178	0.062	10.409	0.120	0.229	0.296	0.405	0.428	0.267	0.111	0.230	8.796	2.606	9.448	2.803	0.938	1.514	0.334	2.092	93.449	131.864	116.895	-1.000	81.043	107.726	95.058	112.463	95.286	147.869	115.289	78.914	101.650	123.832	82.740	87.323	122.641	105.635	83.755	90.043
	164	0.802	0.184	0.060	10.489	0.067	0.412	0.302	0.383	0.442	0.238	0.103	0.229	8.658	2.606	9.088	2.859	1.049	1.462	0.388	2.092	91.973	131.835	117.364	-1.000	81.134	108.621	94.869	114.045	95.210	148.334	115.846	79.442	101.262	123.640	81.899	87.990	122.896	105.507	83.998	90.462
	165	0.843	0.188	0.059	10.454	0.067	0.596	0.311	0.352	0.408	0.221	0.099	0.221	8.982	2.623	9.384	2.870	1.206	1.277	0.404	2.092	90.523	131.744	116.984	-1.000	81.273	109.561	93.912	115.309	95.401	148.304	115.923	79.485	100.657	123.439	81.219	87.979	123.283	105.840	84.476	90.740
	166	0.866	0.198	0.058	10.248	0.067	0.598	0.329	0.331	0.356	0.227	0.083	0.205	8.891	2.640	9.656	2.803	1.230	1.225	0.421	2.045	89.492	131.658	116.482	-1.000	80.710	110.193	93.494	116.915	95.403	147.979	115.555	79.838	100.638	124.472	80.637	88.054	125.145	105.841	84.901	90.934
	167	0.889	0.210	0.059	10.008	0.060	0.595	0.313	0.334	0.414	0.215	0.070	0.187	8.273	2.674	9.704	2.792	1.258	1.196	0.428	1.981	88.508	131.707	116.946	-1.000	80.565	111.057	93.170	118.523	95.425	147.732	115.693	79.860	100.646	123.950	80.362	88.381	124.804	106.273	85.267	91.181
	168	0.887	0.215	0.065	9.733	0.053	0.590	0.279	0.334	0.629	0.184	0.087	0.175	7.411	2.663	9.784	2.809	1.349	1.161	0.433	1.939	87.858	131.844	117.372	-1.000	80.762	111.745	92.883	120.763	95.456	147.080	115.317	80.297	100.698	124.648	80.113	88.266	125.038	106.096	85.405	91.298
	169	0.817	0.214	0.070	9.359	0.053	0.590	0.250	0.309	0.817	0.166	0.136	0.154	7.065	2.600	9.864	2.781	1.339	1.144	0.395	1.839	86.463	132.075	118.011	-1.000	81.536	112.439	93.061	122.340	95.414	146.366	115.314	80.882	100.300	125.348	80.106	88.826	125.397	106.910	86.439	91.796
	170	0.756	0.218	0.071	8.953	0.074	0.500	0.290	0.294	0.822	0.172	0.169	0.140	7.291	2.583	9.928	2.626	1.265	1.080	0.333	1.670	85.622	132.186	118.456	-1.000	82.333	112.944	93.415	123.832	95.236	146.139	115.049	81.886	100.192	124.247	80.790	89.412	125.184	107.584	87.150	92.614
	171	0.720	0.230	0.065	8.598	0.087	0.315	0.304	0.297	0.842	0.166	0.190	0.146	7.731	2.611	10.136	2.526	1.189	1.017	0.276	1.453	84.838	131.692	119.128	-1.000	83.078	113.186	93.852	124.868	95.219	145.274	113.898	83.063	99.892	123.086	81.491	89.315	124.252	107.245	87.326	93.289
	172	0.676	0.233	0.068	8.371	0.100	0.125	0.309	0.297	0.845	0.138	0.198	0.164	7.764	2.537	9.840	2.570	1.196	0.947	0.268	1.316	84.212	132.017	120.079	-1.000	83.782	113.146	94.037	126.869	95.258	144.620	110.971	83.974	100.343	120.648	82.320	89.581	122.702	107.124	87.329	93.186
	173	0.633	0.228	0.070	8.136	0.094	0.128	0.309	0.312	0.874	0.089	0.206	0.168	7.949	2.457	9.576	2.737	1.227	0.901	0.288	1.236	84.323	132.603	121.068	-1.000	83.966	112.726	94.137	129.024	95.348	144.372	110.028	84.720	99.884	119.693	83.084	89.001	120.530	105.740	86.430	93.001
	174	0.525	0.214	0.069	7.795	0.080	0.130	0.329	0.331	0.864	0.046	0.194	0.173	8.204	2.349	9.632	3.059	1.276	0.826	0.320	1.242	84.691	133.128	121.678	-1.000	85.014	113.355	94.379	132.105	95.965	143.535	109.559	85.673	99.825	120.188	84.258	89.430	120.529	105.420	86.712	92.880
	175	0.392	0.206	0.063	7.469	0.060	0.136	0.332	0.325	0.791	0.043	0.161	0.180	8.542	2.200	9.656	3.153	1.283	0.797	0.370	1.268	85.500	133.291	122.422	-1.000	85.541	114.396	94.845	134.914	96.552	143.052	110.212	86.129	100.332	119.685	85.179	88.492	120.337	102.780	85.175	93.275
	176	0.313	0.207	0.053	7.253	0.047	0.142	0.306	0.331	0.676	0.055	0.116	0.190	8.636	2.154	9.400	3.247	1.276	0.797	0.377	1.331	86.506	133.406	123.371	-1.000	85.977	115.127	95.301	138.791	97.163	142.387	110.560	86.597	100.678	119.424	85.531	88.395	119.969	104.410	85.970	93.620
	177	0.272	0.220	0.045	7.125	0.027	0.140	0.267	0.346	0.674	0.072	0.095	0.201	8.756	2.029	9.000	3.336	1.244	0.815	0.378	1.384	87.081	133.645	124.219	-1.000	86.762	115.967	95.622	142.615	97.945	141.778	111.183	86.873	100.809	120.280	85.809	88.886	120.203	104.825	86.592	93.274
	178	0.243	0.214	0.045	6.982	0.013	0.135	0.254	0.362	0.659	0.072	0.091	0.199	8.676	1.960	8.424	3.353	1.251	0.832	0.381	1.432	88.069	134.127	124.728	-1.000	87.084	116.928	95.635	146.754	97.941	141.330	112.252	87.063	101.462	120.947	86.582	88.759	120.886	105.343	87.083	93.094
	179	0.241	0.221	0.046	6.738	0.000	0.130	0.246	0.356	0.696	0.072	0.095	0.187	8.687	1.983	7.920	3.314	1.332	0.901	0.449	1.448	88.787	134.247	125.018	-1.000	87.979	118.818	96.162	150.475	98.182	141.144	114.891	87.590	101.892	122.646	86.994	88.524	122.094	104.880	87.239	92.640
	180	0.225	0.237	0.046	6.469	0.000	0.132	0.240	0.331	0.775	0.086	0.111	0.172	8.615	2.029	7.432	3.225	1.537	0.994	0.567	1.469	88.661	133.670	125.259	-1.000	88.780	120.024	96.050	153.544	98.617	140.431	116.077	87.974	102.543	123.049	87.165	89.153	124.000	106.663	88.865	92.944
	181	0.223	0.264	0.050	6.294	0.000	0.135	0.229	0.309	0.855	0.135	0.149	0.154	8.655	2.000	7.192	2.803	1.523	1.144	0.642	1.432	88.926	133.051	125.304	-1.000	88.101	121.456	95.680	156.719	98.770	139.727	116.200	88.592	102.512	122.563	86.941	89.126	123.843	107.266	89.309	93.081
	182	0.228	0.282	0.056	6.227	0.000	0.134	0.215	0.303	0.868	0.227	0.182	0.134	8.673	1.943	6.616	2.404	1.509	1.283	0.592	1.321	88.659	132.184	125.287	-1.000	87.932	122.045	94.714	159.736	98.351	139.151	116.314	88.983	102.399	122.455	87.024	90.278	123.938	110.431	91.553	92.645
	183	0.213	0.281	0.062	6.264	0.000	0.133	0.190	0.303	1.012	0.318	0.186	0.130	8.647	1.926	5.848	2.109	1.527	1.433	0.607	1.162	88.299	131.235	124.619	-1.000	88.346	122.599	93.683	162.317	98.412	138.416	115.688	88.915	102.371	122.198	87.187	90.154	124.266	108.149	90.769	92.029
	184	0.192	0.253	0.059	6.292	0.000	0.151	0.177	0.297	1.293	0.376	0.190	0.132	8.258	2.029	5.496	2.165	1.520	1.433	0.632	1.094	88.268	130.708	123.473	-1.000	87.626	123.314	92.173	163.022	97.947	137.409	114.975	88.689	102.430	121.793	87.026	89.863	124.035	107.009	90.225	92.449
	185	0.187	0.241	0.058	6.340	0.000	0.174	0.181	0.300	1.550	0.387	0.173	0.133	7.836	2.131	5.488	2.265	1.457	1.456	0.627	1.088	87.860	130.081	122.122	-1.000	87.283	123.752	90.734	163.771	97.487	137.045	114.764	88.352	102.454	121.997	86.996	90.130	123.888	107.604	91.111	92.873
	186	0.179	0.243	0.052	6.438	0.000	0.201	0.190	0.318	1.561	0.393	0.165	0.135	7.560	2.126	5.928	2.248	1.258	1.467	0.542	1.131	87.257	128.898	121.464	-1.000	86.308	122.152	89.793	164.440	97.002	137.113	114.900	87.996	102.109	122.366	87.240	89.681	123.492	107.657	91.415	93.926
	187	0.177	0.245	0.051	6.597	0.007	0.213	0.188	0.328	1.600	0.393	0.161	0.152	7.364	2.046	6.144	2.193	0.955	1.398	0.409	1.078	87.565	128.227	121.346	-1.000	84.736	122.833	89.206	164.617	96.359	137.475	114.319	87.436	102.237	122.557	88.077	88.923	122.913	105.143	89.692	94.464
	188	0.197	0.257	0.047	6.693	0.040	0.228	0.161	0.334	1.647	0.373	0.157	0.182	6.651	2.011	5.712	2.232	1.070	1.317	0.327	0.983	88.058	127.848	120.590	-1.000	84.247	122.771	89.152	164.519	95.567	137.489	114.160	87.252	102.391	123.294	88.490	88.596	123.144	104.473	89.560	94.673
	189	0.220	0.275	0.043	6.765	0.094	0.241	0.133	0.343	1.689	0.301	0.153	0.211	6.095	2.046	5.440	2.348	1.398	1.288	0.327	0.925	88.703	127.805	119.817	-1.000	83.879	122.894	89.514	164.244	95.359	137.088	113.971	87.506	102.202	123.559	88.697	88.722	122.888	104.437	89.850	94.829
	190	0.236	0.318	0.038	6.736	0.134	0.250	0.136	0.346	1.620	0.221	0.153	0.208	6.011	2.114	5.752	2.387	1.806	1.265	0.300	0.940	89.574	127.575	119.385	-1.000	82.214	122.903	89.912	163.536	94.534	135.797	114.510	87.827	102.016	124.360	88.708	88.819	122.518	104.451	89.914	95.209
	191	0.228	0.397	0.039	6.706	0.147	0.243	0.146	0.346	1.460	0.158	0.144	0.203	5.862	2.120	6.248	2.320	1.795	1.259	0.271	0.983	90.273	127.291	119.496	-1.000	80.865	122.307	90.724	164.180	93.999	134.324	115.287	88.516	101.605	125.520	88.573	89.186	122.441	105.489	90.988	95.253
	192	0.225	0.478	0.039	6.670	0.180	0.229	0.136	0.356	1.253	0.158	0.149	0.198	5.622	2.080	6.480	2.248	1.809	1.248	0.251	0.988	91.135	126.818	119.750	-1.000	79.936	120.714	91.381	163.887	93.274	131.749	115.181	88.691	101.188	126.479	88.764	89.689	122.545	105.811	91.354	94.644
	193	0.225	0.491	0.042	6.683	0.221	0.218	0.123	0.390	1.255	0.152	0.169	0.201	5.531	2.109	6.120	2.309	1.851	1.219	0.237	0.951	91.806	126.863	119.183	-1.000	78.829	121.361	91.024	163.328	92.552	129.204	114.526	89.352	101.085	127.272	88.701	90.265	122.780	105.958	91.740	94.214
	194	0.231	0.509	0.045	6.747	0.247	0.219	0.129	0.430	1.319	0.152	0.198	0.207	5.589	2.114	5.904	2.365	1.928	1.254	0.207	1.009	91.684	127.069	118.153	-1.000	78.860	119.900	91.114	162.474	91.729	127.034	114.449	89.977	100.301	127.762	87.622	91.091	123.038	107.438	93.256	93.611
	195	0.231	0.538	0.050	6.934	0.261	0.219	0.142	0.442	1.599	0.178	0.256	0.215	5.684	2.154	6.160	2.437	1.816	1.306	0.170	1.136	91.771	126.869	117.391	-1.000	78.520	117.739	91.119	161.071	90.548	124.581	114.372	90.416	99.650	128.248	84.789	91.261	122.954	107.356	93.256	93.103
	196	0.233	0.579	0.055	7.150	0.267	0.218	0.152	0.470	2.099	0.238	0.338	0.226	5.476	2.160	6.272	2.553	1.454	1.323	0.195	1.247	92.247	127.129	116.740	-1.000	77.216	115.197	91.277	159.505	89.374	122.781	114.497	90.512	98.600	128.455	83.279	91.298	122.898	106.766	92.738	93.135
	197	0.236	0.659	0.057	7.454	0.274	0.219	0.173	0.522	2.582	0.278	0.450	0.256	5.135	2.063	6.048	2.637	1.014	1.248	0.295	1.284	92.398	127.905	115.834	-1.000	77.803	113.037	91.147	157.741	88.129	121.713	114.427	91.406	98.381	127.993	82.067	91.659	122.527	106.997	93.050	93.124
	198	0.243	0.761	0.061	7.721	0.314	0.234	0.204	0.584	2.785	0.284	0.491	0.295	5.207	2.011	5.792	2.581	1.014	1.150	0.409	1.279	93.016	128.420	115.010	-1.000	78.175	110.905	91.201	155.395	86.885	121.075	113.686	91.479	98.205	126.706	78.393	90.507	122.301	106.305	91.738	93.222
	199	0.259	0.843	0.065	8.003	0.321	0.262	0.231	0.621	2.849	0.273	0.512	0.342	5.356	2.000	5.544	2.642	1.000	1.075	0.447	1.294	93.674	128.993	114.769	-1.000	78.370	109.406	91.441	153.265	85.847	121.590	113.571	92.450	97.877	124.896	78.273	90.334	120.648	105.207	90.816	93.762
	200	0.284	0.867	0.063	8.308	0.281	0.296	0.248	0.671	2.900	0.273	0.508	0.376	5.138	1.949	5.368	2.753	1.035	1.046	0.542	1.310	94.032	128.362	114.753	-1.000	78.733	106.659	91.698	150.272	84.371	121.667	113.037	92.877	97.487	123.219	78.535	88.993	119.848	102.491	88.561	93.519
	201	0.300	0.905	0.063	8.548	0.247	0.313	0.277	0.736	3.067	0.273	0.512	0.397	4.785	1.954	5.008	2.770	1.067	1.011	0.871	1.342	94.562	128.187	114.697	-1.000	79.121	105.181	92.066	147.547	83.227	121.510	111.274	93.221	97.163	121.526	79.624	89.777	118.971	103.215	88.861	93.243
	202	0.307	0.940	0.068	8.687	0.214	0.328	0.317	0.767	3.215	0.264	0.508	0.418	5.105	1.851	4.648	2.798	1.133	0.947	1.311	1.342	96.265	130.250	115.135	-1.000	79.057	103.696	92.418	143.444	82.822	121.089	110.985	93.504	97.092	119.881	83.114	90.200	118.240	102.590	88.260	93.261
	203	0.325	0.951	0.083	8.769	0.200	0.351	0.384	0.751	3.119	0.241	0.466	0.456	5.796	1.749	4.416	2.842	1.182	0.901	1.536	1.342	97.095	131.730	115.448	-1.000	79.356	102.839	92.577	140.314	82.853	120.350	110.320	93.916	97.951	118.595	86.217	91.289	117.429	101.959	87.854	93.345
	204	0.354	0.935	0.100	8.829	0.221	0.379	0.457	0.705	2.853	0.215	0.409	0.497	6.262	1.869	4.352	2.842	1.203	0.924	1.463	1.316	98.363	133.085	115.881	-1.000	78.344	102.346	92.826	137.401	83.322	119.372	110.109	93.561	98.305	117.777	89.261	90.853	116.869	101.075	86.950	93.273
	205	0.389	0.941	0.113	8.973	0.241	0.400	0.611	0.665	2.770	0.209	0.392	0.528	6.091	2.034	4.208	2.820	1.223	1.034	1.401	1.300	98.833	134.289	116.409	-1.000	78.264	102.260	92.815	135.271	84.227	118.464	110.604	93.554	99.276	118.266	94.974	92.599	116.577	100.887	87.487	93.297
	206	0.400	0.958	0.122	9.146	0.267	0.405	0.807	0.665	2.807	0.215	0.392	0.544	6.000	2.080	4.040	2.742	1.293	1.092	1.408	1.273	99.307	135.611	117.054	-1.000	78.035	102.743	92.706	134.421	85.664	117.633	112.088	93.112	101.291	119.526	96.992	94.489	118.074	102.188	88.466	93.858
	207	0.413	1.000	0.129	9.172	0.334	0.398	0.982	0.646	2.815	0.215	0.376	0.552	6.091	2.143	4.008	2.653	1.290	1.121	1.332	1.257	100.969	136.893	117.900	-1.000	77.768	103.583	93.167	134.016	87.028	117.359	113.897	93.201	102.460	120.326	98.218	97.170	117.043	104.551	90.499	93.998
	208	0.471	1.039	0.134	9.238	0.341	0.406	1.022	0.600	2.648	0.229	0.343	0.571	6.265	2.274	4.016	2.659	1.272	1.127	1.028	1.226	102.629	138.346	118.848	-1.000	77.199	104.742	93.100	134.157	88.313	116.459	115.684	93.602	104.034	120.775	99.283	97.673	116.730	104.351	90.602	94.326
	209	0.571	1.075	0.135	9.310	0.347	0.416	1.067	0.597	2.488	0.250	0.305	0.626	5.847	2.537	4.112	2.748	1.255	1.144	0.607	1.178	102.344	137.833	118.944	-1.000	76.649	105.837	92.521	134.469	89.133	115.704	116.115	93.249	103.867	119.844	98.087	97.428	115.249	104.367	89.922	94.821
	210	0.676	1.103	0.131	9.393	0.341	0.428	1.107	0.643	2.577	0.255	0.293	0.707	5.065	2.771	4.064	2.920	1.300	1.219	0.382	1.146	102.435	137.456	118.944	-1.000	76.526	107.107	91.761	133.996	89.703	114.844	116.721	93.028	103.520	119.996	97.210	96.733	113.744	104.396	89.874	95.403
	211	0.764	1.133	0.126	9.416	0.314	0.430	1.113	0.696	3.106	0.227	0.268	0.779	4.473	2.789	4.008	3.170	1.356	1.277	0.462	1.199	102.725	137.409	119.228	-1.000	76.698	107.958	91.228	133.123	89.951	114.387	117.118	92.693	102.982	119.781	96.134	97.039	112.656	104.007	90.088	95.212
	212	0.825	1.118	0.124	9.423	0.327	0.442	1.036	0.733	3.254	0.215	0.248	0.839	4.280	2.663	3.960	3.253	1.436	1.300	0.542	1.252	102.912	137.098	116.605	-1.000	76.174	108.630	90.905	132.012	89.931	113.538	114.810	92.382	101.888	118.603	95.195	95.805	111.384	102.635	88.994	94.798
	213	0.922	1.093	0.122	9.363	0.381	0.458	0.930	0.767	3.252	0.215	0.243	0.895	4.065	2.617	4.128	3.175	1.415	1.196	0.624	1.257	103.832	137.303	116.887	-1.000	76.087	109.106	90.933	130.029	89.881	113.109	114.334	92.107	100.264	117.197	93.864	94.649	110.270	101.271	88.324	93.135
	214	1.022	1.079	0.129	9.441	0.434	0.472	0.834	0.825	3.222	0.215	0.260	0.930	4.004	2.640	4.256	3.103	1.422	1.155	0.649	1.252	104.972	138.262	117.874	-1.000	76.238	109.315	91.025	127.295	90.256	112.130	114.506	92.316	99.333	116.420	92.328	95.008	110.735	101.355	88.600	90.993
	215	1.130	1.069	0.138	9.584	0.434	0.476	0.828	0.912	3.360	0.186	0.264	0.955	4.105	2.669	4.304	3.092	1.481	1.138	0.678	1.263	106.710	138.330	118.669	-1.000	77.548	109.010	91.244	124.039	90.514	111.546	116.307	92.730	97.756	115.448	90.958	93.851	110.141	99.986	87.205	88.257
	216	1.168	1.061	0.150	9.786	0.461	0.489	0.913	1.017	3.465	0.146	0.239	0.966	4.255	2.703	4.072	3.114	1.534	1.138	0.683	1.326	108.636	137.468	119.079	-1.000	77.812	108.429	91.638	121.352	90.454	111.243	116.929	92.962	98.041	115.983	90.449	93.439	110.573	99.166	87.584	86.425
	217	1.202	1.082	0.150	9.966	0.508	0.507	1.072	1.079	3.357	0.123	0.219	0.980	4.280	2.771	3.840	2.870	1.537	1.075	0.675	1.353	110.585	136.904	119.745	-1.000	78.561	107.904	92.299	118.482	90.504	111.195	117.122	93.130	97.636	115.646	88.323	92.462	111.595	98.546	87.329	84.174
	218	1.291	1.103	0.150	10.148	0.575	0.523	1.176	1.122	2.906	0.158	0.227	1.008	4.291	2.794	3.648	2.548	1.548	0.988	0.658	1.300	112.721	136.638	121.098	-1.000	79.178	107.978	92.661	116.481	90.753	111.381	117.654	93.481	96.881	116.029	87.674	91.797	112.387	98.679	87.047	82.967
	219	1.448	1.100	0.148	10.232	0.575	0.528	1.197	1.162	3.016	0.158	0.264	1.066	4.385	2.954	3.600	2.354	1.593	0.936	0.639	1.252	114.798	136.763	125.957	-1.000	80.175	109.059	93.121	114.572	91.079	112.115	120.849	94.050	96.501	117.094	87.586	92.000	113.369	99.604	87.576	81.891
	220	1.581	1.091	0.152	10.340	0.561	0.542	1.247	1.165	3.211	0.158	0.252	1.138	4.575	3.149	3.504	2.376	1.621	1.017	0.607	1.215	116.331	136.612	127.577	-1.000	80.462	109.780	93.135	111.622	91.174	112.281	120.916	94.529	97.019	117.821	87.574	91.688	114.123	99.738	87.331	81.395
	221	1.663	1.126	0.158	10.485	0.515	0.569	1.330	1.144	3.253	0.158	0.264	1.221	4.600	3.257	3.352	2.415	1.624	1.069	0.583	1.194	116.646	135.826	128.566	-1.000	79.337	110.075	92.733	108.369	91.015	113.041	120.352	94.829	97.578	119.134	87.794	91.425	115.201	99.885	87.365	82.998
	222	1.722	1.184	0.167	10.666	0.568	0.616	1.445	1.175	3.201	0.172	0.330	1.321	4.389	3.251	3.272	2.520	1.589	1.069	0.554	1.189	117.607	135.266	129.834	-1.000	77.712	109.762	92.364	105.633	90.624	113.410	118.628	94.758	98.134	120.231	87.328	91.203	115.790	99.779	87.834	84.537
	223	1.896	1.260	0.189	10.826	0.608	0.669	1.516	1.190	3.112	0.198	0.442	1.458	4.127	3.194	3.448	2.487	1.600	1.057	0.554	1.178	117.491	134.674	130.218	-1.000	76.887	109.371	91.078	103.759	90.252	113.189	117.851	94.106	97.953	120.658	87.457	90.211	115.905	99.460	87.410	84.872
	224	2.165	1.329	0.227	10.974	0.648	0.738	1.562	1.199	3.049	0.229	0.520	1.630	3.891	3.211	3.632	2.615	1.725	1.063	0.573	1.131	116.813	133.817	130.222	-1.000	74.720	109.069	89.428	102.493	89.609	113.056	117.080	93.249	98.143	120.929	88.215	89.413	115.657	99.123	86.987	85.483
	225	2.434	1.397	0.258	11.157	0.668	0.847	1.618	1.227	3.259	0.258	0.594	1.789	3.731	3.360	3.760	2.881	1.858	1.086	0.580	1.131	115.295	132.254	129.025	-1.000	72.610	107.970	87.600	100.443	88.469	112.606	115.907	92.199	98.887	120.375	87.587	89.103	115.255	98.834	86.988	85.658
	226	2.652	1.492	0.282	11.384	0.715	0.968	1.710	1.314	3.251	0.310	0.652	1.939	3.731	3.611	3.776	3.331	1.997	1.046	0.573	1.094	113.663	130.061	126.128	-1.000	70.368	105.531	85.578	98.442	86.993	112.266	113.927	90.751	98.630	119.495	86.318	88.595	114.302	98.432	86.749	85.522
	227	2.747	1.612	0.299	11.619	0.775	1.052	1.741	1.437	3.222	0.344	0.706	2.063	3.876	3.840	3.704	3.636	2.081	1.034	0.547	1.141	111.662	127.667	123.609	-1.000	68.800	102.863	83.998	97.404	86.053	112.198	112.975	89.808	97.900	119.137	86.135	88.703	113.928	98.188	87.008	85.312
	228	2.844	1.709	0.308	11.792	0.849	1.150	1.764	1.533	3.239	0.344	0.743	2.153	4.000	4.189	3.768	3.741	2.168	1.034	0.600	1.236	109.339	125.527	120.341	-1.000	68.436	100.646	82.506	96.963	85.088	112.446	111.721	88.519	97.395	118.787	86.230	88.955	113.789	97.789	87.203	84.704
	229	2.954	1.867	0.333	11.978	0.915	1.276	1.795	1.586	3.377	0.341	0.809	2.237	4.073	4.640	3.816	3.697	2.252	1.138	0.632	1.300	105.765	122.581	116.888	-1.000	67.321	97.805	80.553	96.402	83.902	112.379	109.920	87.139	96.970	118.108	86.488	88.730	113.464	98.010	87.242	84.164
	230	3.113	2.090	0.351	12.285	1.022	1.432	1.918	1.626	3.581	0.333	0.842	2.399	4.109	5.080	3.752	3.669	2.377	1.283	0.634	1.310	104.103	120.461	116.896	-1.000	66.851	96.506	78.823	95.770	82.898	112.051	109.063	86.341	96.643	116.590	86.504	88.830	112.057	98.247	87.246	84.115
	231	3.262	2.324	0.356	12.529	1.129	1.631	2.112	1.691	3.722	0.316	0.796	2.584	4.164	5.411	3.648	3.664	2.503	1.525	0.624	1.389	102.885	118.826	115.961	-1.000	66.674	95.378	76.947	94.982	81.967	111.378	108.611	85.692	95.681	115.635	86.327	88.738	111.085	97.433	86.585	83.853
	232	3.441	2.501	0.365	12.749	1.129	1.825	2.356	1.808	3.671	0.284	0.813	2.739	4.189	5.606	3.640	3.719	2.757	1.797	0.621	1.495	102.228	117.815	115.434	-1.000	66.182	94.440	75.516	94.252	81.417	110.928	108.457	85.269	95.525	114.680	86.823	87.911	109.442	97.050	85.963	83.814
	233	3.754	2.710	0.388	13.074	1.156	2.002	2.602	1.926	3.707	0.247	0.995	2.897	3.982	5.783	3.704	3.597	2.928	2.028	0.623	1.617	101.944	117.061	115.860	-1.000	65.722	93.696	74.093	94.023	81.257	110.279	108.426	84.885	96.046	113.895	87.072	87.626	108.253	96.792	85.988	83.720
	234	4.317	2.843	0.413	13.434	1.136	2.214	2.858	2.037	3.721	0.244	1.230	3.057	3.611	5.731	3.672	3.414	3.067	2.138	0.609	1.680	101.754	116.470	115.711	-1.000	65.042	92.865	72.278	94.433	80.566	110.260	108.045	83.896	96.099	112.597	86.602	86.608	106.282	96.193	85.086	83.977
	235	4.971	2.935	0.449	13.672	1.062	2.462	3.040	2.118	3.768	0.318	1.407	3.181	3.324	5.537	3.584	3.408	3.196	2.195	0.573	1.706	102.042	116.439	115.655	-1.000	64.013	92.237	71.016	95.626	79.522	108.892	108.324	83.029	96.129	110.862	86.480	85.883	104.371	95.993	84.572	84.107
	236	5.778	3.201	0.445	13.733	1.009	2.704	3.182	2.220	3.900	0.427	1.643	3.357	3.098	5.360	3.600	3.553	3.291	2.213	0.552	1.696	101.953	116.497	116.689	-1.000	61.991	92.197	70.159	96.649	78.413	107.541	108.539	82.165	95.973	109.574	86.212	85.635	102.180	95.563	84.071	83.499
	237	6.767	3.709	0.451	13.833	0.962	3.003	3.321	2.387	4.078	0.499	2.035	3.573	3.098	5.383	3.856	3.664	3.381	2.271	0.558	1.733	101.237	116.259	116.079	-1.000	60.221	91.594	69.512	98.097	77.738	107.226	108.050	81.635	95.911	109.816	86.320	85.202	102.101	94.978	83.732	82.866
	238	7.892	4.068	0.506	14.170	0.915	3.318	3.446	2.569	4.185	0.511	2.509	3.876	3.193	5.571	4.168	3.825	3.378	2.224	0.580	1.749	100.723	115.569	116.474	-1.000	58.888	90.831	69.204	98.055	77.195	106.696	107.359	81.219	96.422	109.782	86.772	85.047	101.939	95.492	84.172	82.369
	239	8.957	4.336	0.604	14.596	0.989	3.585	3.580	2.751	4.237	0.513	3.120	4.121	3.349	5.669	4.232	3.969	3.259	2.091	0.595	1.706	100.031	114.925	116.604	-1.000	58.509	90.050	68.981	97.854	76.626	106.248	106.446	81.220	96.155	110.098	87.312	85.154	102.568	95.326	84.052	81.806
	240	10.034	4.685	0.691	14.870	1.022	3.913	3.786	2.968	4.276	0.554	3.896	4.347	3.407	5.669	4.120	4.019	3.196	1.959	0.627	1.691	99.261	114.615	116.698	-1.000	58.026	89.585	68.794	97.306	76.418	105.638	106.295	81.166	96.244	110.286	88.866	85.338	102.897	94.980	83.819	81.290
	241	10.994	5.109	0.764	15.140	1.036	4.282	3.966	3.190	4.288	0.582	4.519	4.564	3.244	6.000	3.880	4.124	3.113	1.959	0.690	1.765	98.495	114.700	116.068	-1.000	56.804	89.767	68.558	96.610	77.296	104.076	105.239	81.228	96.287	111.144	83.522	86.030	104.004	95.368	84.464	81.136
	242	11.758	5.425	0.836	15.619	1.069	4.623	4.001	3.472	4.365	0.574	4.998	4.751	3.120	6.531	3.648	4.130	3.040	1.970	0.725	1.775	97.663	114.555	115.777	-1.000	55.779	89.680	67.994	95.857	78.073	103.447	103.559	81.627	94.628	111.720	80.881	86.666	105.239	95.461	85.004	80.052
	243	12.452	6.031	0.934	16.183	1.082	4.922	4.153	3.753	4.495	0.516	5.761	4.814	4.811	6.897	3.336	4.047	2.991	1.924	0.763	1.733	96.515	113.968	114.188	-1.000	55.947	88.247	67.459	95.149	78.194	103.383	102.674	82.099	94.115	112.806	80.837	87.528	107.156	94.978	85.228	79.257
	244	13.464	6.658	1.083	16.510	1.082	5.295	4.441	4.084	5.711	0.476	6.731	4.975	8.218	6.977	3.224	3.975	2.984	1.889	0.770	1.691	95.367	113.339	113.187	-1.000	55.583	87.151	67.185	93.696	77.845	102.890	102.135	81.664	94.449	112.674	81.543	87.340	106.989	93.864	84.305	78.734
	245	14.630	7.197	1.217	16.606	1.089	5.777	4.877	4.445	8.032	0.470	7.717	5.247	11.698	6.943	3.320	3.908	3.081	1.935	0.846	1.733	94.069	112.698	112.201	-1.000	55.039	85.895	66.646	92.437	77.064	102.562	101.628	81.349	94.864	112.436	81.666	86.055	106.911	93.019	83.508	77.940
	246	15.378	7.217	1.379	16.599	1.082	6.381	5.262	4.779	10.628	0.545	8.596	5.581	11.836	7.069	3.528	3.747	3.231	2.039	0.980	1.833	92.825	111.715	111.024	-1.000	54.001	84.543	65.803	91.371	76.149	101.955	100.730	80.751	95.192	111.934	81.231	86.211	106.346	93.040	83.813	77.708
	247	15.932	7.639	1.453	16.695	1.056	7.036	5.569	4.986	11.090	0.623	8.972	5.813	11.942	7.337	3.720	3.708	3.611	2.143	1.071	1.902	90.996	110.972	109.497	-1.000	53.013	82.573	64.646	90.123	74.753	101.547	99.639	80.355	95.245	111.116	80.194	85.848	105.506	93.188	83.886	77.766
	248	16.383	8.002	1.479	16.842	1.069	7.583	5.804	5.200	11.254	0.666	9.145	5.985	12.033	7.469	3.984	3.741	4.071	2.190	1.042	1.854	89.332	110.476	108.325	-1.000	52.177	80.493	63.279	88.212	72.977	101.000	98.667	80.077	95.385	110.172	85.757	84.313	104.484	91.251	82.040	77.321
	249	16.803	8.178	1.443	16.898	1.062	7.975	5.942	5.425	11.356	0.600	9.467	6.100	12.175	7.566	4.224	3.819	4.448	2.213	1.063	1.817	88.131	108.917	106.778	-1.000	51.273	78.076	61.824	84.881	71.644	100.570	97.522	79.127	97.118	108.883	89.420	82.708	103.151	90.989	81.456	78.091
	250	17.390	8.314	1.499	16.920	1.116	8.426	5.973	5.651	11.377	0.637	10.028	6.225	10.695	7.829	4.440	3.891	4.911	2.346	1.088	1.923	86.605	109.534	105.582	-1.000	50.502	77.496	61.043	82.077	70.733	99.806	96.656	78.435	97.817	107.542	90.111	81.842	100.940	91.466	81.345	78.488
	251	17.969	8.544	1.636	16.969	1.196	9.035	5.886	5.932	10.560	0.835	10.887	6.479	7.789	8.171	4.200	4.097	5.591	2.490	1.132	1.992	84.624	109.986	104.344	-1.000	50.248	76.244	60.483	79.403	69.829	99.294	95.926	78.307	97.484	106.861	89.637	81.752	100.197	92.373	82.128	78.422
	252	18.179	8.832	1.873	17.083	1.229	9.790	5.694	6.279	8.873	1.222	11.506	6.824	4.993	8.469	3.856	4.302	6.016	2.554	1.085	1.987	82.946	110.507	103.170	-1.000	50.408	74.929	60.267	77.526	69.128	98.795	95.172	78.156	97.074	106.129	89.397	82.656	99.545	92.833	82.534	78.604
	253	17.920	9.250	1.923	17.225	1.109	10.456	5.435	6.671	7.510	1.584	11.956	7.135	5.349	8.663	3.800	4.402	6.414	2.658	0.957	1.928	81.195	110.912	102.130	-1.000	50.820	73.669	60.155	76.174	68.475	98.498	94.177	77.823	96.687	105.536	89.179	82.072	99.016	92.569	82.155	78.292
	254	17.766	9.430	2.021	17.343	1.076	10.922	5.202	6.971	7.433	1.911	12.331	7.375	5.487	8.754	4.152	4.419	6.940	2.998	0.834	1.965	79.856	111.053	101.212	-1.000	49.034	72.765	60.418	75.242	67.913	97.921	92.966	77.673	96.473	105.942	88.427	81.821	98.290	92.274	81.718	78.017
	255	17.817	9.591	2.089	17.378	1.082	11.337	4.983	7.157	7.373	2.037	12.426	7.454	5.531	8.600	4.128	4.585	7.491	3.438	0.860	2.055	78.408	110.335	99.946	-1.000	46.991	71.345	60.831	74.700	67.875	97.990	91.644	77.481	96.492	104.900	88.278	82.531	97.010	93.893	83.119	77.150
	256	17.741	9.648	2.194	17.360	1.109	11.848	5.039	7.410	7.352	2.037	12.513	7.528	5.549	8.149	3.944	4.802	7.484	3.813	0.885	2.208	76.396	109.482	98.717	-1.000	44.473	69.049	60.804	73.900	67.556	97.570	90.513	77.170	95.905	104.504	87.823	82.953	95.824	93.794	82.674	76.619
	257	17.448	9.638	2.325	17.337	1.123	12.398	5.031	7.815	7.641	2.111	12.847	7.595	5.367	8.000	3.776	4.940	7.407	4.108	1.017	2.261	75.056	107.940	98.402	-1.000	42.045	67.294	60.508	72.707	66.847	97.869	90.089	77.218	95.467	103.811	87.301	81.985	95.436	92.969	82.035	76.438
	258	16.969	9.644	2.448	17.363	1.183	12.855	5.018	8.096	7.949	2.464	13.297	7.649	5.073	8.309	4.032	4.946	7.379	4.466	1.273	2.325	73.963	106.934	97.467	-1.000	39.674	65.863	60.180	72.375	66.221	99.574	88.405	77.980	95.284	103.656	87.053	81.297	95.266	92.562	81.672	76.060
	259	16.385	9.736	2.446	17.368	1.276	13.218	4.968	8.167	7.910	2.960	13.491	7.617	4.709	8.926	4.400	5.079	7.808	5.003	1.554	2.362	72.596	105.774	96.357	-1.000	37.680	64.514	59.729	72.723	65.799	101.257	86.732	78.571	95.379	103.354	87.032	80.894	94.848	92.403	81.673	75.878
	260	16.372	9.927	2.532	17.350	1.457	13.496	4.929	8.069	7.143	3.316	13.648	7.553	4.353	9.411	4.544	5.329	8.380	5.408	1.644	2.441	70.949	104.838	94.970	-1.000	35.216	63.345	59.445	72.840	65.567	103.128	85.154	79.375	94.697	103.183	83.400	80.033	94.570	91.984	81.428	75.703
	261	16.196	10.076	2.628	17.292	1.510	13.797	4.772	7.985	7.015	3.333	13.866	7.566	4.142	9.737	4.320	5.490	8.697	5.581	1.772	2.515	69.588	106.850	93.823	-1.000	35.156	62.486	59.166	73.187	65.557	104.696	83.866	79.882	94.180	101.621	82.154	78.804	94.475	90.441	80.420	75.411
	262	15.699	10.134	2.714	17.189	1.497	14.180	4.560	7.970	7.046	3.471	14.036	7.699	4.222	10.269	4.608	5.446	8.467	5.610	1.901	2.657	68.501	98.419	92.853	-1.000	35.419	61.386	58.828	69.942	64.162	105.170	82.772	80.617	94.835	101.620	81.599	76.140	94.272	88.938	79.202	75.927
	263	15.299	9.952	2.779	17.032	1.437	14.464	4.335	7.942	7.067	3.471	14.114	7.808	4.276	10.869	5.000	5.257	8.732	5.650	1.984	2.795	68.155	89.932	92.250	-1.000	35.461	60.811	59.103	65.386	62.653	104.321	82.211	80.513	95.266	100.148	80.941	73.639	92.984	87.168	78.360	75.623
	264	14.786	9.762	2.857	16.882	1.330	14.719	4.293	7.830	7.187	3.566	13.990	8.046	4.331	11.383	5.704	5.212	9.059	5.633	1.888	2.901	66.468	83.010	90.426	-1.000	35.343	59.326	58.900	61.100	61.571	102.667	80.297	79.504	95.078	99.185	80.279	71.976	91.496	85.796	77.011	75.217
	265	14.164	9.534	2.977	16.689	1.143	15.011	4.335	7.725	7.399	3.638	13.569	8.136	4.196	11.577	6.320	5.335	9.694	5.876	1.677	2.985	64.343	76.077	88.845	-1.000	35.803	58.614	58.690	58.346	60.679	99.913	79.651	78.548	94.704	98.645	79.684	71.400	91.315	85.510	76.523	75.159
	266	13.644	9.249	3.168	16.557	0.976	15.231	4.322	7.741	7.647	3.729	13.099	8.317	4.087	11.806	6.536	5.246	9.805	6.355	1.488	3.085	62.797	69.110	87.058	-1.000	35.582	57.742	58.490	56.840	60.020	96.809	78.502	78.087	94.090	98.198	78.856	70.721	91.254	84.611	75.397	74.258
	267	13.162	9.038	3.408	16.357	0.875	15.484	4.364	7.790	7.778	3.749	12.773	8.492	4.255	11.726	6.336	4.985	9.352	6.725	1.556	3.191	61.162	61.580	85.363	-1.000	35.437	56.869	57.967	54.982	59.233	92.800	77.306	77.811	93.290	96.908	80.928	69.807	89.796	83.641	74.082	72.963
	268	12.706	8.764	3.610	16.072	0.869	15.853	4.528	7.985	7.855	3.985	12.414	8.571	4.324	11.594	6.208	4.763	9.286	6.650	1.623	3.228	60.068	51.259	83.328	-1.000	35.251	55.540	57.189	52.359	58.280	89.173	75.968	73.972	92.441	96.041	81.260	69.194	88.455	84.507	73.998	71.752
	269	12.250	8.547	3.719	15.656	0.902	15.993	4.712	8.149	7.804	3.944	12.100	8.630	4.400	11.371	6.232	5.096	10.255	6.442	1.640	3.175	58.601	50.845	80.990	-1.000	35.320	53.317	56.393	52.814	57.877	85.544	74.780	69.097	90.133	94.305	80.515	69.684	87.174	84.667	73.759	70.057
	270	11.853	8.450	3.788	15.222	0.962	15.985	4.710	8.260	7.719	3.944	12.220	8.582	4.418	11.343	5.968	5.623	10.429	6.315	1.723	3.207	57.568	50.604	78.794	-1.000	35.829	50.989	55.772	54.966	57.596	83.397	73.884	65.266	88.011	93.522	78.889	69.949	86.269	84.642	73.510	68.632
	271	11.494	8.237	3.907	14.689	1.062	15.969	4.547	8.189	7.478	4.010	12.405	8.386	4.567	11.263	5.584	6.001	10.795	6.586	1.913	3.371	58.113	49.962	77.404	-1.000	36.290	49.300	55.477	56.345	57.616	81.518	73.623	62.270	87.205	93.556	78.509	70.692	86.945	85.589	74.450	67.995
	272	11.043	7.898	4.083	14.127	1.223	15.912	4.301	8.124	7.091	4.484	12.802	8.353	4.844	12.086	5.496	6.151	11.329	7.100	2.133	3.603	58.840	50.086	76.432	-1.000	36.325	47.953	55.160	56.652	57.468	80.145	73.074	59.748	86.664	93.282	78.015	70.715	86.389	85.643	74.577	67.131
	273	10.705	7.611	4.237	13.501	1.390	15.887	4.122	8.016	6.737	5.207	13.371	8.255	5.236	13.029	5.920	6.461	12.336	7.684	2.340	3.730	58.762	49.853	75.831	-1.000	36.317	46.995	54.943	55.848	57.380	79.239	72.914	56.885	86.195	92.540	77.387	70.961	85.504	86.162	75.400	67.161
	274	10.502	7.381	4.354	12.900	1.423	16.045	3.978	8.016	6.403	5.709	13.908	8.110	5.487	13.840	6.456	6.967	13.364	8.083	2.485	3.836	58.737	48.504	75.435	-1.000	36.345	45.712	54.917	55.094	57.352	78.814	73.056	53.647	86.387	92.080	77.632	71.970	85.574	86.254	75.684	68.155
	275	10.318	7.063	4.469	12.389	1.490	16.228	3.774	8.028	6.155	5.531	14.407	7.963	6.120	14.537	6.552	7.588	14.305	8.868	2.616	3.936	58.919	48.762	75.028	-1.000	36.631	44.589	54.970	54.566	57.327	78.164	73.425	54.057	85.334	90.677	76.424	71.309	84.639	84.524	74.816	67.365
	276	10.159	6.739	4.619	11.967	1.544	16.196	3.590	8.087	6.033	5.537	14.646	7.869	6.516	15.434	6.440	7.694	14.229	9.538	2.774	4.047	59.167	49.006	75.094	-1.000	36.672	44.518	55.012	54.185	57.585	77.592	74.107	54.689	85.410	89.387	76.386	70.453	83.585	83.468	73.993	67.130
	277	9.923	6.698	4.722	11.492	1.590	16.105	3.494	8.143	6.027	5.537	14.378	7.793	6.782	15.789	6.840	7.799	14.898	9.885	2.939	3.978	59.071	49.371	75.291	-1.000	36.726	44.290	54.819	50.980	57.780	76.958	74.997	54.919	85.669	87.369	76.955	69.778	82.217	82.725	73.201	66.702
	278	9.606	6.664	4.809	11.015	1.443	15.858	3.480	8.313	5.680	5.582	14.077	7.793	6.851	15.897	7.400	7.971	14.954	9.908	3.095	3.815	58.579	49.468	75.238	-1.000	36.544	43.363	54.395	49.258	57.617	76.459	75.579	55.166	85.485	85.714	76.938	68.756	80.035	81.312	71.769	65.999
	279	9.265	6.671	4.901	10.598	1.216	15.372	3.476	8.375	5.072	5.451	13.747	7.714	6.793	15.697	7.608	8.393	15.030	10.220	3.270	3.519	58.350	49.620	75.055	-1.000	36.371	42.888	54.267	49.480	57.856	76.057	75.494	55.159	85.352	84.611	76.661	68.314	78.899	80.654	71.304	65.542
	280	8.929	6.692	5.002	10.216	1.062	14.884	3.513	8.464	4.605	5.161	13.532	7.644	6.367	15.589	7.680	8.965	15.076	10.856	3.397	3.202	58.496	50.315	75.048	-1.000	36.497	42.356	54.163	49.384	57.800	75.557	75.784	55.141	85.221	83.753	76.489	67.498	77.811	79.695	70.353	64.641
	281	8.332	6.645	5.110	9.776	1.163	14.486	3.526	8.569	4.916	5.132	13.417	7.588	6.065	15.754	7.880	9.442	15.009	11.549	3.527	2.864	59.363	52.509	75.224	-1.000	36.676	42.252	54.341	49.411	57.832	75.169	75.946	55.195	85.317	83.452	76.356	66.514	76.712	79.393	70.157	63.144
	282	7.574	6.513	5.268	9.270	1.176	14.279	3.580	8.758	5.125	5.838	13.239	7.675	5.629	15.960	8.456	9.537	14.989	11.774	3.712	2.504	59.063	52.496	75.092	-1.000	36.588	42.129	54.404	49.652	57.837	74.456	75.632	55.147	86.428	84.031	77.135	66.630	76.335	79.978	70.494	63.186
	283	7.192	6.393	5.354	8.774	1.009	14.146	3.672	8.984	5.225	6.412	13.247	7.675	5.258	15.811	8.880	9.698	15.051	12.109	3.941	2.039	58.973	52.681	74.463	-1.000	36.641	41.743	54.676	50.154	57.933	73.698	75.112	55.191	86.814	84.023	77.027	66.968	75.570	80.313	70.843	62.596
	284	7.702	6.355	5.472	8.419	0.902	14.006	3.782	9.181	5.221	6.412	13.351	7.735	4.935	15.909	9.152	9.720	15.208	12.427	4.138	1.585	58.887	52.948	73.562	-1.000	36.858	41.393	54.932	50.306	58.370	72.500	74.540	55.651	87.213	83.640	76.707	66.599	74.446	80.012	70.409	62.305
	285	8.376	6.500	5.691	8.123	0.996	13.992	3.901	9.333	5.509	6.469	13.466	7.640	4.847	15.977	9.496	9.786	15.170	12.618	4.349	1.131	58.988	53.173	72.607	-1.000	37.199	41.435	55.328	50.370	58.505	72.048	73.877	56.030	87.679	83.620	76.850	66.295	73.832	79.872	70.362	61.859
	286	8.591	6.461	6.085	7.753	1.136	14.325	4.059	9.463	5.957	6.696	13.755	7.630	5.044	16.131	9.688	9.920	15.184	12.889	4.515	1.289	59.201	53.233	72.286	-1.000	37.387	41.732	55.502	50.090	58.488	71.781	73.944	56.167	88.762	84.028	77.953	65.999	73.867	79.933	70.420	62.029
	287	8.637	6.401	6.569	7.310	1.176	14.690	4.201	9.559	6.168	7.129	13.813	7.623	5.480	16.474	9.792	9.864	15.355	13.207	4.798	2.515	59.527	53.955	72.006	-1.000	37.448	41.929	55.778	49.911	58.636	71.482	73.782	56.297	90.421	85.113	79.013	66.816	73.960	80.917	71.124	62.744
	288	8.893	6.359	6.944	6.940	1.049	14.607	4.351	9.577	5.577	7.370	13.606	7.756	5.647	16.777	9.640	9.687	15.578	13.450	5.076	4.153	59.259	54.212	71.571	-1.000	37.709	41.908	55.890	49.682	58.652	71.501	73.974	56.321	92.231	85.889	79.847	67.690	74.859	82.160	71.968	63.727
	289	9.319	6.401	7.237	6.632	0.942	14.181	4.495	9.453	5.158	7.215	13.280	7.848	5.622	16.674	9.288	9.736	15.640	13.340	5.328	4.755	59.494	54.819	71.567	-1.000	37.893	42.031	56.186	49.505	58.706	71.846	74.416	56.579	87.879	80.789	75.998	62.970	70.308	77.984	67.805	59.563
	290	9.498	6.460	7.461	6.353	1.029	13.869	4.589	9.234	4.959	6.871	13.020	8.025	5.531	16.817	9.056	9.848	15.487	12.993	5.517	4.670	59.646	55.751	72.121	-1.000	38.229	42.601	56.456	49.509	58.868	72.102	75.330	56.791	85.042	78.246	72.958	60.879	68.289	76.495	65.417	57.966
	291	8.965	6.425	7.601	6.055	1.082	13.535	4.593	8.953	4.917	6.871	13.012	8.221	5.531	16.891	9.312	10.031	15.267	12.803	5.681	4.660	60.195	58.379	72.226	-1.000	38.486	42.779	56.642	48.738	58.966	72.490	75.688	57.077	83.348	77.313	70.783	59.130	67.865	75.362	63.786	56.836
	292	8.401	6.211	7.772	5.756	1.129	13.138	4.639	8.517	4.736	6.931	13.148	8.489	5.480	17.183	9.880	10.208	15.104	12.918	5.862	4.813	60.447	59.896	72.066	-1.000	38.697	43.009	56.575	47.821	58.978	71.987	75.600	57.090	82.696	77.627	69.239	58.925	68.727	75.550	63.645	57.176
	293	8.284	6.199	7.983	5.497	1.216	12.689	4.785	8.205	4.444	6.985	13.289	8.733	5.407	16.949	10.744	10.203	14.811	13.097	6.147	4.729	60.527	61.312	72.558	-1.000	39.461	43.508	56.784	46.029	59.245	72.267	75.981	57.370	81.379	76.691	67.557	58.461	67.925	74.634	62.523	56.953
	294	8.391	6.216	7.978	5.243	1.410	12.145	5.039	8.065	4.181	6.713	13.318	9.085	5.367	16.366	11.360	10.408	13.810	13.276	6.373	3.973	60.907	62.376	72.801	-1.000	40.616	43.928	56.937	43.533	59.566	72.573	75.982	57.797	79.319	75.030	66.107	57.522	66.945	73.862	61.578	56.461
	295	8.430	6.019	7.635	4.967	1.544	11.628	5.235	7.973	3.958	5.772	12.876	9.309	5.298	15.389	11.840	10.608	11.953	13.432	6.558	2.673	61.450	63.662	72.952	-1.000	42.154	44.141	56.837	44.475	60.219	72.395	75.923	58.956	77.381	73.996	64.328	56.325	65.927	72.542	60.322	55.908
	296	8.237	5.603	7.047	4.723	1.564	10.952	5.335	7.781	3.647	4.676	12.418	9.268	5.375	14.703	11.600	10.375	10.241	13.346	6.637	2.113	61.834	65.191	73.064	-1.000	43.798	44.451	56.806	44.885	60.898	72.299	76.049	60.430	81.193	78.475	67.327	60.811	70.024	76.719	64.110	60.006
	297	7.861	5.157	6.719	4.500	1.523	10.286	5.352	7.645	3.420	4.102	12.240	9.026	5.498	13.571	10.888	10.020	10.255	13.045	6.673	2.113	62.405	66.913	72.771	-1.000	46.069	44.923	56.305	45.187	61.007	72.029	75.330	62.606	82.320	80.066	69.002	62.169	71.428	77.217	65.183	61.872
	298	7.459	5.165	6.817	4.251	1.544	9.880	5.335	7.549	3.393	4.102	12.129	8.784	5.516	12.869	10.264	10.497	10.684	12.595	6.731	2.161	62.587	67.778	72.953	-1.000	48.369	45.154	55.294	45.685	61.199	72.144	74.647	65.061	83.099	80.863	69.865	60.670	71.896	76.921	65.158	63.244
	299	7.077	5.295	7.048	3.969	1.523	9.878	5.502	7.540	3.384	4.191	11.997	8.832	5.535	12.823	9.560	11.091	10.659	12.589	6.740	3.043	62.774	68.491	73.051	-1.000	50.030	45.031	55.027	45.867	61.923	72.215	74.512	66.790	82.854	80.148	69.882	60.524	71.572	76.749	65.314	63.216
	300	6.805	5.477	7.294	3.734	1.470	9.968	5.819	7.583	3.473	4.745	11.824	8.861	5.647	13.434	9.264	11.529	10.642	12.964	6.695	4.818	63.242	68.964	72.934	-1.000	51.345	44.986	54.871	46.252	62.297	71.968	74.331	68.013	82.841	80.690	69.837	60.821	71.739	77.353	65.876	63.283
	301	6.595	5.643	7.544	3.587	1.423	10.066	6.126	7.608	3.686	5.674	11.617	9.068	5.956	14.303	9.104	12.157	10.656	13.704	6.638	6.704	63.333	69.249	72.650	-1.000	52.228	43.881	54.662	46.283	61.284	71.711	74.631	69.155	83.052	80.847	69.892	60.392	72.052	77.016	65.667	63.166
	302	6.344	5.619	7.785	3.496	1.523	10.158	6.236	7.586	3.825	6.426	11.427	9.744	6.127	15.411	8.736	12.667	10.509	14.634	6.674	7.117	63.191	69.634	72.399	-1.000	52.798	44.779	54.706	46.550	60.895	71.614	74.433	69.683	83.014	80.702	70.145	60.323	72.066	76.777	65.636	63.143
	303	6.277	5.562	7.945	3.376	1.670	10.289	6.290	7.614	3.858	6.426	11.225	10.318	5.938	16.440	8.640	12.945	10.555	15.599	6.751	7.317	63.488	69.889	72.044	-1.000	53.728	45.521	54.647	46.625	60.624	71.422	74.154	69.918	83.310	80.889	70.529	60.283	72.579	76.810	65.853	63.292
	304	6.295	5.518	7.983	3.257	1.784	10.449	6.284	7.620	3.858	6.426	11.139	10.664	5.378	17.440	8.880	13.345	10.645	16.500	6.863	7.317	63.720	70.135	71.558	-1.000	54.402	45.948	54.933	46.519	60.827	71.108	74.178	70.147	84.183	81.324	70.684	60.322	72.874	77.487	66.615	62.950
	305	6.380	5.481	7.971	3.147	1.831	10.570	6.361	7.713	3.815	6.426	11.151	11.046	5.000	17.771	9.384	13.861	10.809	16.627	6.947	7.381	63.660	70.532	70.952	-1.000	55.463	46.997	55.707	47.847	61.384	70.543	73.655	70.346	84.016	81.334	70.840	62.259	72.541	78.649	67.596	62.924
	306	6.405	5.393	7.980	3.053	1.998	10.495	6.480	7.948	3.752	6.578	11.188	11.427	5.065	17.897	9.824	14.111	10.973	16.806	7.131	6.900	63.798	70.936	70.207	-1.000	55.458	49.236	55.817	49.183	61.127	70.349	73.528	70.128	84.211	81.466	70.790	63.027	72.727	79.148	68.050	62.677
	307	6.165	5.301	8.018	2.910	2.212	10.343	6.607	8.208	3.526	6.185	11.048	11.944	5.291	17.503	9.656	14.188	11.179	16.922	7.296	5.880	64.450	71.913	70.273	-1.000	55.812	50.826	55.781	51.672	61.391	70.417	73.758	70.456	84.655	81.398	70.621	63.051	73.022	78.957	67.927	62.878
	308	5.698	5.065	8.227	2.719	2.365	10.209	6.734	8.439	3.272	5.889	10.784	12.543	5.527	16.857	9.456	13.955	11.980	17.078	7.441	4.739	65.205	73.069	70.466	-1.000	55.917	53.347	54.572	54.723	62.726	70.543	73.852	71.017	85.063	81.815	70.363	63.762	73.341	79.961	68.654	63.169
	309	5.409	5.155	8.963	2.539	2.439	10.097	6.872	8.792	3.195	6.575	10.821	13.183	5.767	16.040	10.328	14.044	13.605	17.020	7.648	5.093	66.251	74.475	69.026	-1.000	56.136	54.311	53.386	54.387	63.281	70.622	74.152	70.552	84.811	81.688	70.369	64.268	73.550	78.373	67.654	63.642
	310	5.206	5.616	9.943	2.424	2.552	10.193	6.943	9.348	3.646	9.145	10.903	14.439	6.549	15.531	12.120	14.810	15.125	17.719	7.898	5.653	66.986	76.059	67.770	-1.000	56.741	55.439	52.334	54.869	63.917	71.159	74.462	70.176	84.826	81.562	70.299	60.279	73.437	75.373	64.362	64.189
	311	5.091	6.338	10.600	2.312	2.746	10.549	7.333	9.994	3.949	10.127	10.813	15.853	8.000	15.223	13.728	15.593	15.013	18.326	8.098	6.340	67.383	77.963	66.493	-1.000	57.570	57.095	51.316	55.680	64.666	71.567	74.590	69.251	85.252	81.567	70.786	59.850	73.568	75.130	63.498	64.840
	312	4.904	6.349	10.756	2.207	2.840	10.779	7.752	10.545	4.071	10.127	10.458	16.645	9.040	15.051	13.560	15.326	14.490	18.805	8.372	6.224	67.320	79.361	65.024	-1.000	57.357	58.288	50.004	56.452	64.687	71.375	74.565	67.551	86.105	81.645	70.692	60.085	73.870	75.066	63.096	64.866
	313	4.778	6.259	10.738	2.115	3.067	10.901	7.729	11.197	4.358	10.058	9.839	17.078	9.404	14.086	13.392	14.938	13.831	18.528	8.532	6.155	67.253	80.518	64.103	-1.000	58.136	57.944	49.117	57.220	65.107	71.196	73.746	65.928	86.424	82.259	71.741	59.189	74.182	74.649	62.289	65.504
	314	4.727	6.051	10.774	2.076	3.775	10.959	7.572	12.072	4.835	10.399	9.112	17.862	10.276	13.177	13.432	14.827	12.712	18.545	8.702	6.171	66.742	81.376	61.988	-1.000	58.697	57.826	48.522	58.673	65.552	71.616	73.326	64.076	87.566	83.074	73.112	59.995	75.115	76.273	63.705	66.687
	315	4.679	6.016	10.908	2.058	4.898	10.934	7.372	13.039	5.184	11.432	8.815	18.837	11.640	12.006	13.648	14.699	11.684	17.939	8.877	6.387	66.178	82.059	59.918	-1.000	59.356	58.169	49.132	60.679	66.504	71.866	72.381	61.763	88.738	84.314	74.641	60.552	76.371	77.176	64.575	68.292
	316	4.638	6.124	10.781	2.025	5.967	10.928	7.191	13.896	5.442	12.720	8.485	19.448	13.055	11.154	13.064	14.533	11.332	16.581	9.040	6.123	64.699	81.524	58.978	-1.000	58.822	57.936	49.506	62.084	66.704	70.822	70.742	60.386	91.100	86.050	75.941	61.545	78.071	81.589	67.789	69.757
	317	4.597	6.095	10.439	1.981	6.943	10.880	7.155	14.647	5.429	12.955	8.543	19.626	14.444	10.211	11.560	14.460	10.715	15.703	9.219	5.817	60.865	77.759	55.218	-1.000	54.280	52.437	48.493	59.298	62.360	65.516	66.121	56.997	88.881	83.803	73.871	64.128	76.325	83.865	69.836	68.421
	318	4.714	6.552	10.063	1.968	8.105	10.765	7.093	15.373	6.021	13.953	9.104	20.208	15.753	9.726	9.560	14.311	9.499	17.893	9.417	5.843	56.144	71.294	51.852	-1.000	46.321	45.484	44.927	54.079	56.173	62.132	60.812	49.416	80.729	76.372	67.724	57.715	69.380	77.420	64.377	62.008
	319	4.725	6.104	10.451	1.999	9.796	10.915	7.208	16.245	5.716	13.953	8.997	21.642	17.425	9.657	8.560	14.216	9.791	19.476	9.338	5.838	54.644	68.754	50.420	-1.000	41.656	40.538	43.177	54.215	54.041	61.527	59.322	44.899	77.851	74.367	65.998	55.448	67.586	75.433	62.345	60.012
	320	4.795	6.203	10.759	2.007	10.828	11.100	7.533	16.778	5.593	15.496	8.917	23.165	19.384	10.013	7.905	14.442	10.618	21.475	9.426	6.244	53.495	67.617	50.380	-1.000	38.500	37.788	42.572	54.726	53.204	61.971	59.123	43.458	77.724	74.110	66.081	55.103	67.103	75.424	62.210	59.454
	321	4.721	5.898	10.392	1.974	11.413	11.007	7.504	17.061	4.778	16.045	8.060	24.071	20.465	9.640	6.720	14.766	11.073	21.790	9.479	5.784	53.225	66.655	50.491	-1.000	34.963	35.738	42.248	54.979	52.396	61.927	58.315	41.392	77.102	73.407	65.803	54.624	66.380	75.240	61.749	59.120
	322	-9.000	-9.000	-9.000	-9.000	-9.000	-9.000	-9.000	-9.000	-9.000	-9.000	-9.000	-9.000	-9.000	-9.000	-9.000	-9.000	-9.000	-9.000	-9.000	-9.000	52.899	66.032	50.774	-1.000	32.008	33.620	41.889	55.027	51.247	62.038	58.172	40.014	76.567	72.674	65.237	53.880	65.536	74.668	61.015	57.948
	323	-9.000	-9.000	-9.000	-9.000	-9.000	-9.000	-9.000	-9.000	-9.000	-9.000	-9.000	-9.000	-9.000	-9.000	-9.000	-9.000	-9.000	-9.000	-9.000	-9.000	52.830	66.325	51.448	-1.000	29.991	31.700	41.390	56.130	50.381	63.167	58.178	38.746	75.998	71.424	64.724	52.832	63.702	73.493	59.922	56.528
	324	-9.000	-9.000	-9.000	-9.000	-9.000	-9.000	-9.000	-9.000	-9.000	-9.000	-9.000	-9.000	-9.000	-9.000	-9.000	-9.000	-9.000	-9.000	-9.000	-9.000	53.426	68.830	52.801	-1.000	29.939	32.325	41.038	57.686	51.066	66.150	59.862	38.727	79.823	73.912	66.404	53.935	65.637	74.474	60.820	57.658
	325	-9.000	-9.000	-9.000	-9.000	-9.000	-9.000	-9.000	-9.000	-9.000	-9.000	-9.000	-9.000	-9.000	-9.000	-9.000	-9.000	-9.000	-9.000	-9.000	-9.000	53.997	69.547	53.347	-1.000	31.202	32.893	41.288	57.192	51.463	66.344	60.711	40.517	83.543	76.151	68.739	56.763	67.829	76.650	62.567	60.339
	326	-9.000	-9.000	-9.000	-9.000	-9.000	-9.000	-9.000	-9.000	-9.000	-9.000	-9.000	-9.000	-9.000	-9.000	-9.000	-9.000	-9.000	-9.000	-9.000	-9.000	54.896	70.310	55.365	-1.000	31.023	33.607	42.568	55.655	51.901	67.674	61.540	41.908	85.601	77.225	69.488	57.247	68.513	77.665	63.574	61.004
	327	-9.000	-9.000	-9.000	-9.000	-9.000	-9.000	-9.000	-9.000	-9.000	-9.000	-9.000	-9.000	-9.000	-9.000	-9.000	-9.000	-9.000	-9.000	-9.000	-9.000	56.115	71.371	57.061	-1.000	30.749	33.846	43.202	54.567	52.309	68.777	62.317	42.206	85.707	77.006	68.919	57.023	68.102	76.706	62.621	61.059
	328	-9.000	-9.000	-9.000	-9.000	-9.000	-9.000	-9.000	-9.000	-9.000	-9.000	-9.000	-9.000	-9.000	-9.000	-9.000	-9.000	-9.000	-9.000	-9.000	-9.000	55.957	71.070	57.715	-1.000	30.339	34.362	42.710	52.881	52.418	68.824	62.228	42.682	85.354	76.836	68.242	56.437	67.590	75.560	61.736	60.134
	329	-9.000	-9.000	-9.000	-9.000	-9.000	-9.000	-9.000	-9.000	-9.000	-9.000	-9.000	-9.000	-9.000	-9.000	-9.000	-9.000	-9.000	-9.000	-9.000	-9.000	55.662	70.453	59.120	-1.000	29.474	33.119	42.342	51.022	51.265	68.386	61.834	42.332	85.490	77.069	68.297	55.859	67.682	74.667	60.987	59.654
	330	-9.000	-9.000	-9.000	-9.000	-9.000	-9.000	-9.000	-9.000	-9.000	-9.000	-9.000	-9.000	-9.000	-9.000	-9.000	-9.000	-9.000	-9.000	-9.000	-9.000	55.927	69.954	59.693	-1.000	28.216	31.593	42.032	48.253	48.384	67.880	61.965	41.804	83.230	76.320	67.075	54.883	67.210	73.039	59.662	58.825
	331	-9.000	-9.000	-9.000	-9.000	-9.000	-9.000	-9.000	-9.000	-9.000	-9.000	-9.000	-9.000	-9.000	-9.000	-9.000	-9.000	-9.000	-9.000	-9.000	-9.000	57.862	70.176	62.116	-1.000	27.909	35.241	42.849	48.546	49.830	69.693	63.521	41.821	80.312	75.557	66.595	54.587	66.478	72.404	59.369	58.501
	332	-9.000	-9.000	-9.000	-9.000	-9.000	-9.000	-9.000	-9.000	-9.000	-9.000	-9.000	-9.000	-9.000	-9.000	-9.000	-9.000	-9.000	-9.000	-9.000	-9.000	61.114	74.679	64.838	-1.000	28.885	39.998	45.641	52.962	52.958	72.334	66.635	43.955	82.417	79.827	68.997	57.581	70.519	75.953	62.743	61.421
	333	-9.000	-9.000	-9.000	-9.000	-9.000	-9.000	-9.000	-9.000	-9.000	-9.000	-9.000	-9.000	-9.000	-9.000	-9.000	-9.000	-9.000	-9.000	-9.000	-9.000	62.388	76.108	64.785	-1.000	29.004	41.787	46.341	52.343	50.910	72.437	67.192	43.994	81.083	80.408	69.312	58.670	71.746	76.337	63.236	62.295
	334	-9.000	-9.000	-9.000	-9.000	-9.000	-9.000	-9.000	-9.000	-9.000	-9.000	-9.000	-9.000	-9.000	-9.000	-9.000	-9.000	-9.000	-9.000	-9.000	-9.000	63.159	76.518	64.491	-1.000	28.706	42.854	46.476	51.416	50.439	72.087	67.863	43.463	80.085	80.315	68.438	59.436	72.270	77.207	64.282	62.552
	335	-9.000	-9.000	-9.000	-9.000	-9.000	-9.000	-9.000	-9.000	-9.000	-9.000	-9.000	-9.000	-9.000	-9.000	-9.000	-9.000	-9.000	-9.000	-9.000	-9.000	63.608	77.108	64.296	-1.000	28.430	43.782	46.790	50.727	49.163	71.572	68.257	43.331	78.963	79.907	67.252	59.417	72.286	76.969	64.124	62.374
	336	-9.000	-9.000	-9.000	-9.000	-9.000	-9.000	-9.000	-9.000	-9.000	-9.000	-9.000	-9.000	-9.000	-9.000	-9.000	-9.000	-9.000	-9.000	-9.000	-9.000	64.286	77.686	63.221	-1.000	28.043	46.267	46.921	50.196	48.843	71.437	69.639	43.459	77.360	78.782	65.668	59.373	71.532	76.591	64.100	62.251
	337	-9.000	-9.000	-9.000	-9.000	-9.000	-9.000	-9.000	-9.000	-9.000	-9.000	-9.000	-9.000	-9.000	-9.000	-9.000	-9.000	-9.000	-9.000	-9.000	-9.000	64.837	78.248	63.087	-1.000	27.892	49.229	47.382	50.275	50.356	71.468	70.080	43.568	77.641	79.045	65.648	59.752	71.994	76.797	64.278	63.046
	338	-9.000	-9.000	-9.000	-9.000	-9.000	-9.000	-9.000	-9.000	-9.000	-9.000	-9.000	-9.000	-9.000	-9.000	-9.000	-9.000	-9.000	-9.000	-9.000	-9.000	65.158	78.872	63.153	-1.000	28.163	49.661	47.503	49.395	50.115	71.466	72.178	43.731	78.500	79.588	66.098	59.977	72.638	77.111	64.568	63.488
	339	-9.000	-9.000	-9.000	-9.000	-9.000	-9.000	-9.000	-9.000	-9.000	-9.000	-9.000	-9.000	-9.000	-9.000	-9.000	-9.000	-9.000	-9.000	-9.000	-9.000	65.531	79.380	63.079	-1.000	28.148	49.862	47.517	45.979	49.879	71.779	72.949	43.887	79.688	80.224	66.753	60.422	72.970	77.495	64.976	64.114
	340	-9.000	-9.000	-9.000	-9.000	-9.000	-9.000	-9.000	-9.000	-9.000	-9.000	-9.000	-9.000	-9.000	-9.000	-9.000	-9.000	-9.000	-9.000	-9.000	-9.000	65.480	79.350	63.530	-1.000	28.220	51.380	47.814	47.364	51.532	71.726	73.601	44.150	79.000	79.299	65.827	59.977	72.255	76.261	64.314	63.924
	341	-9.000	-9.000	-9.000	-9.000	-9.000	-9.000	-9.000	-9.000	-9.000	-9.000	-9.000	-9.000	-9.000	-9.000	-9.000	-9.000	-9.000	-9.000	-9.000	-9.000	66.025	80.884	63.518	-1.000	28.606	53.665	48.950	49.856	51.790	71.158	74.567	45.415	81.284	81.994	68.426	61.381	74.713	77.663	65.841	65.977
	342	-9.000	-9.000	-9.000	-9.000	-9.000	-9.000	-9.000	-9.000	-9.000	-9.000	-9.000	-9.000	-9.000	-9.000	-9.000	-9.000	-9.000	-9.000	-9.000	-9.000	66.216	81.416	63.331	-1.000	28.776	54.015	49.236	48.780	51.721	71.011	75.933	45.509	82.799	83.281	70.368	62.344	75.842	78.615	66.906	67.412
end
